id,
1,TION EEG_DATA
2,
3,@ATTRIBUTE AF3 NUMERIC
4,@ATTRIBUTE F7 NUMERIC
5,@ATTRIBUTE F3 NUMERIC
6,@ATTRIBUTE FC5 NUMERIC
7,@ATTRIBUTE T7 NUMERIC
8,@ATTRIBUTE P7 NUMERIC
9,@ATTRIBUTE O1 NUMERIC
10,@ATTRIBUTE O2 NUMERIC
11,@ATTRIBUTE P8 NUMERIC
12,@ATTRIBUTE T8 NUMERIC
13,@ATTRIBUTE FC6 NUMERIC
14,@ATTRIBUTE F4 NUMERIC
15,@ATTRIBUTE F8 NUMERIC
16,@ATTRIBUTE AF4 NUMERIC
17,@ATTRIBUTE eyeDetection {0,1}
18,
19,@DATA
20,4329.23,4009.23,4289.23,4148.21,4350.26,4586.15,4096.92,4641.03,4222.05,4238.46,4211.28,4280.51,4635.9,4393.85,0
21,4324.62,4004.62,4293.85,4148.72,4342.05,4586.67,4097.44,4638.97,4210.77,4226.67,4207.69,4279.49,4632.82,4384.1,0
22,4327.69,4006.67,4295.38,4156.41,4336.92,4583.59,4096.92,4630.26,4207.69,4222.05,4206.67,4282.05,4628.72,4389.23,0
23,4328.72,4011.79,4296.41,4155.9,4343.59,4582.56,4097.44,4630.77,4217.44,4235.38,4210.77,4287.69,4632.31,4396.41,0
24,4326.15,4011.79,4292.31,4151.28,4347.69,4586.67,4095.9,4627.69,4210.77,4244.1,4212.82,4288.21,4632.82,4398.46,0
25,4321.03,4004.62,4284.1,4153.33,4345.64,4587.18,4093.33,4616.92,4202.56,4232.82,4209.74,4281.03,4628.21,4389.74,0
26,4319.49,4001.03,4280.51,4151.79,4343.59,4584.62,4089.74,4615.9,4212.31,4226.67,4201.03,4269.74,4625.13,4378.46,0
27,4325.64,4006.67,4278.46,4143.08,4344.1,4583.08,4087.18,4614.87,4205.64,4230.26,4195.9,4266.67,4622.05,4380.51,0
28,4326.15,4010.77,4276.41,4139.49,4345.13,4584.1,4091.28,4608.21,4187.69,4229.74,4202.05,4273.85,4627.18,4389.74,0
29,4326.15,4011.28,4276.92,4142.05,4344.1,4582.56,4092.82,4608.72,4194.36,4228.72,4212.82,4277.95,4637.44,4393.33,0
30,4326.15,4010.77,4272.82,4143.08,4342.56,4579.49,4087.69,4615.9,4206.15,4228.72,4210.77,4272.82,4631.79,4382.56,0
31,4316.92,4002.56,4259.49,4135.9,4339.49,4581.54,4086.15,4615.38,4195.9,4223.59,4197.44,4262.05,4613.33,4370.77,0
32,4308.21,3993.33,4247.69,4124.62,4335.9,4584.62,4089.74,4610.26,4188.72,4221.54,4190.26,4255.9,4606.15,4369.74,0
33,4308.21,3998.46,4251.79,4122.56,4338.46,4584.62,4091.28,4616.92,4205.64,4225.64,4194.36,4263.59,4610.26,4371.28,0
34,4312.82,4006.15,4260.51,4127.69,4341.03,4586.15,4089.74,4628.72,4215.9,4225.13,4198.97,4274.36,4611.79,4375.9,0
35,4313.85,4003.59,4255.9,4127.69,4337.95,4586.15,4091.28,4627.69,4206.15,4224.62,4199.49,4269.23,4610.26,4378.97,0
36,4306.67,3997.95,4247.18,4122.56,4336.92,4584.1,4094.36,4620.51,4202.56,4226.15,4193.85,4254.36,4606.15,4369.74,0
37,4303.59,3996.41,4249.23,4122.05,4341.03,4584.1,4090.77,4616.41,4203.59,4226.15,4189.23,4253.85,4606.15,4370.26,0
38,4312.31,4000,4255.9,4124.1,4342.05,4586.67,4085.64,4610.77,4192.31,4223.08,4192.31,4264.62,4614.87,4382.05,0
39,4315.9,4003.59,4257.44,4122.56,4341.54,4588.21,4088.21,4607.18,4188.21,4216.92,4200,4270.26,4621.54,4378.97,0
40,4314.36,4005.64,4259.49,4123.59,4345.13,4588.21,4092.31,4612.82,4206.67,4222.56,4209.74,4272.31,4624.62,4381.54,0
41,4324.62,4012.82,4263.08,4132.31,4343.08,4587.18,4091.79,4617.95,4213.33,4240.51,4217.95,4274.36,4632.31,4400.51,0
42,4331.28,4024.1,4266.15,4140,4336.41,4585.64,4089.74,4617.95,4204.62,4245.13,4216.41,4274.36,4638.97,4401.54,0
43,4326.67,4020,4264.1,4137.44,4334.36,4586.15,4088.21,4621.54,4213.33,4238.46,4208.72,4271.28,4634.36,4385.13,0
44,4321.54,4007.69,4260,4132.31,4340,4585.64,4087.18,4630.26,4230.26,4242.56,4208.72,4270.26,4627.69,4378.97,0
45,4317.44,4007.69,4257.44,4128.72,4343.59,4585.13,4088.21,4638.97,4231.79,4247.69,4209.23,4269.74,4625.13,4386.15,0
46,4311.79,4007.18,4250.77,4125.13,4336.41,4587.18,4087.69,4634.36,4209.23,4232.31,4197.44,4262.05,4615.38,4381.03,0
47,4308.72,4000,4245.13,4121.54,4329.23,4585.64,4086.67,4617.44,4189.23,4216.41,4186.15,4253.85,4604.1,4362.05,0
48,4308.21,4002.05,4252.82,4122.56,4332.82,4582.56,4087.69,4610.77,4192.82,4216.41,4189.74,4256.92,4605.13,4360,0
49,4311.28,4011.28,4265.13,4130.26,4339.49,4583.59,4089.74,4616.41,4200,4220.51,4195.9,4265.64,4611.28,4374.36,0
50,4311.28,4008.72,4265.13,4130.77,4337.44,4585.64,4087.69,4614.87,4190.26,4218.46,4195.38,4265.64,4608.72,4374.36,0
51,4306.15,4000.51,4259.49,4121.03,4330.26,4584.1,4085.64,4607.18,4185.13,4216.92,4200,4263.08,4611.28,4369.23,0
52,4307.18,4003.08,4263.08,4121.54,4330.77,4582.56,4086.67,4611.79,4202.05,4224.62,4208.72,4271.28,4622.56,4379.49,0
53,4314.87,4008.21,4268.21,4128.21,4335.38,4584.1,4092.31,4625.64,4212.82,4231.28,4210.77,4275.9,4624.62,4382.56,0
54,4313.85,4003.08,4263.59,4124.1,4336.41,4586.67,4100.51,4633.33,4215.38,4232.82,4207.18,4270.77,4618.97,4372.31,0
55,4308.21,3997.44,4254.36,4119.49,4332.82,4588.72,4097.95,4628.21,4217.44,4235.38,4208.21,4268.72,4621.54,4368.21,0
56,4308.72,4006.15,4253.33,4121.03,4330.26,4585.64,4082.05,4614.87,4202.56,4236.41,4208.72,4271.28,4628.21,4370.26,0
57,4306.15,4007.69,4253.33,4121.03,4330.26,4579.49,4077.44,4607.69,4186.67,4224.62,4198.97,4267.18,4622.56,4367.18,0
58,4297.44,3992.82,4249.74,4118.46,4330.77,4581.03,4085.64,4609.23,4189.23,4208.72,4187.18,4258.97,4606.15,4363.59,0
59,4301.03,3994.36,4252.82,4119.49,4332.82,4583.08,4087.69,4611.79,4195.9,4210.26,4188.21,4260.51,4601.03,4366.67,0
60,4313.85,4010.77,4260,4124.62,4337.44,4580.51,4088.72,4618.46,4203.59,4223.59,4198.97,4267.69,4613.33,4370.77,0
61,4317.44,4010.77,4258.46,4126.15,4339.49,4584.1,4094.36,4625.64,4208.21,4229.74,4201.54,4271.28,4619.49,4376.41,0
62,4305.64,3998.46,4251.79,4121.54,4331.79,4584.62,4094.87,4620,4200,4222.05,4196.92,4268.72,4610.77,4370.26,0
63,4296.92,3995.38,4249.23,4120.51,4324.62,4577.95,4088.21,4615.9,4203.08,4213.33,4197.95,4262.56,4606.15,4357.44,0
64,4298.97,4001.03,4247.69,4123.08,4332.82,4580,4087.18,4624.62,4220.51,4224.1,4205.64,4265.13,4615.38,4363.08,0
65,4302.56,4006.67,4249.74,4120.51,4342.05,4589.23,4094.87,4627.69,4216.41,4241.54,4217.95,4274.87,4627.69,4375.9,0
66,4308.72,4006.15,4256.41,4118.46,4333.85,4587.69,4097.95,4621.54,4206.67,4243.59,4223.08,4276.41,4633.33,4376.92,0
67,4315.38,4000.51,4262.56,4120.51,4329.23,4583.59,4092.82,4621.54,4210.26,4240,4218.97,4277.44,4633.85,4381.03,0
68,4317.95,4004.62,4268.72,4123.59,4337.95,4585.13,4087.18,4622.05,4207.18,4242.05,4217.44,4285.64,4634.87,4388.21,0
69,4316.41,4013.85,4267.69,4124.62,4342.56,4589.74,4089.23,4616.41,4200.51,4232.82,4213.33,4281.03,4630.26,4375.9,0
70,4305.13,4008.72,4259.49,4120,4341.03,4595.9,4092.82,4612.31,4199.49,4219.49,4198.46,4261.03,4611.79,4357.95,0
71,4293.33,3994.87,4254.36,4116.41,4337.44,4596.41,4092.31,4609.74,4193.33,4211.79,4186.67,4252.82,4597.95,4347.69,0
72,4297.44,3994.36,4258.46,4118.97,4336.92,4594.36,4096.92,4614.36,4193.33,4209.74,4192.31,4260.51,4602.05,4350.77,0
73,4308.21,4007.18,4268.21,4126.15,4344.62,4595.38,4102.05,4622.56,4205.13,4221.54,4205.13,4271.79,4614.36,4374.87,0
74,4315.9,4021.03,4277.95,4134.36,4346.15,4591.28,4095.9,4620,4208.72,4235.38,4212.31,4280.51,4625.64,4391.79,0
75,4329.23,4026.15,4281.03,4141.03,4336.92,4585.64,4085.64,4613.33,4203.59,4233.85,4213.33,4281.54,4630.77,4387.18,0
76,4335.9,4024.62,4281.03,4144.1,4336.41,4591.28,4088.72,4616.41,4202.05,4233.33,4211.79,4274.87,4631.28,4385.64,0
77,4324.62,4018.97,4276.41,4135.9,4341.54,4600.51,4099.49,4626.15,4211.28,4242.05,4216.41,4276.92,4632.82,4388.72,0
78,4314.87,4011.28,4268.72,4122.56,4334.36,4602.05,4100.51,4632.31,4222.56,4243.08,4221.03,4283.59,4630.26,4381.03,0
79,4312.82,4005.64,4266.15,4124.62,4333.33,4601.03,4100.51,4632.31,4218.46,4240,4216.41,4278.46,4622.05,4374.87,0
80,4312.31,4009.23,4270.26,4134.36,4344.1,4600.51,4099.49,4629.23,4209.23,4240.51,4213.33,4276.41,4621.54,4380,0
81,4312.82,4010.26,4268.72,4129.74,4344.62,4602.05,4095.9,4629.74,4214.36,4236.41,4214.87,4282.05,4624.1,4375.9,0
82,4308.21,4003.59,4264.62,4121.54,4333.85,4601.03,4094.87,4631.79,4215.38,4228.72,4208.21,4278.97,4612.82,4363.08,0
83,4299.49,4002.56,4265.64,4123.08,4332.31,4592.31,4088.21,4619.49,4193.33,4221.03,4197.95,4268.72,4602.56,4358.46,0
84,4296.41,4004.1,4263.59,4122.05,4342.05,4590.77,4082.05,4606.15,4176.92,4211.28,4194.36,4267.18,4602.05,4360.51,0
85,4303.59,4003.59,4261.03,4126.15,4346.67,4598.97,4087.69,4612.82,4192.82,4208.72,4198.46,4274.36,4601.03,4358.46,0
86,4313.33,4008.21,4268.72,4136.92,4342.56,4595.38,4091.28,4623.08,4207.69,4222.05,4206.15,4283.08,4607.69,4362.56,0
87,4316.41,4014.36,4278.97,4139.49,4337.95,4583.59,4085.64,4614.87,4198.46,4234.87,4212.31,4285.64,4620,4378.46,0
88,4320,4017.44,4284.1,4137.95,4337.44,4586.15,4086.67,4612.31,4198.97,4242.56,4217.95,4284.62,4626.67,4389.74,0
89,4328.21,4021.03,4283.08,4141.03,4332.82,4599.49,4100,4630.26,4217.95,4248.21,4226.67,4291.79,4632.82,4388.72,0
90,4325.13,4019.49,4281.54,4136.41,4327.69,4606.15,4109.74,4638.46,4218.97,4242.56,4228.21,4300,4636.41,4383.59,0
91,4312.82,4010.26,4282.05,4129.74,4331.28,4606.67,4108.72,4628.72,4212.31,4233.85,4221.54,4300,4629.74,4380,0
92,4309.74,4005.64,4278.46,4133.33,4335.38,4606.15,4105.13,4628.21,4216.92,4237.44,4214.87,4291.28,4620.51,4372.82,0
93,4307.18,4005.13,4269.23,4130.26,4334.36,4607.18,4103.08,4629.23,4211.28,4233.85,4205.64,4278.46,4612.31,4360,0
94,4300,4000.51,4260,4121.54,4333.85,4602.05,4095.38,4612.82,4189.23,4222.05,4196.92,4269.74,4606.15,4349.74,0
95,4299.49,3996.92,4253.85,4125.64,4337.95,4590.26,4086.15,4598.46,4179.49,4225.64,4195.38,4266.15,4607.18,4352.82,0
96,4292.82,4000,4249.74,4130.26,4340.51,4588.21,4082.56,4596.92,4183.08,4230.26,4195.9,4263.08,4609.23,4356.41,0
97,4281.54,4001.54,4245.64,4120,4334.87,4595.9,4080.51,4592.82,4178.46,4214.87,4191.79,4257.95,4605.64,4347.69,0
98,4288.21,4000,4244.62,4118.97,4334.36,4600.51,4081.03,4597.95,4183.08,4204.62,4188.21,4260.51,4603.08,4345.64,0
99,4301.54,4005.64,4251.28,4134.87,4345.13,4606.15,4088.21,4617.95,4207.18,4216.92,4192.31,4269.74,4603.59,4353.85,0
100,4299.49,4013.85,4260,4140.51,4349.74,4612.82,4091.79,4625.64,4214.87,4231.79,4196.92,4271.28,4603.59,4355.9,0
101,4295.38,4015.38,4262.56,4137.44,4347.18,4614.87,4090.26,4620,4210.77,4233.85,4196.92,4268.21,4605.64,4358.97,0
102,4307.18,4016.41,4267.69,4138.46,4348.72,4615.9,4093.85,4625.13,4220,4233.85,4200.51,4275.38,4614.36,4365.13,0
103,4318.97,4021.54,4277.44,4141.54,4348.72,4612.31,4099.49,4632.82,4224.1,4244.1,4214.36,4288.72,4629.74,4371.28,0
104,4317.44,4021.54,4281.54,4140.51,4347.69,4606.67,4095.38,4625.13,4206.67,4252.82,4222.56,4294.36,4640,4381.03,0
105,4313.33,4011.28,4278.46,4136.41,4345.13,4608.72,4090.26,4611.79,4190.26,4241.54,4214.87,4289.74,4632.82,4380,0
106,4314.87,4002.56,4271.79,4134.36,4335.38,4609.74,4093.85,4607.18,4189.74,4222.05,4205.13,4282.56,4622.05,4367.18,0
107,4314.36,4009.23,4271.28,4137.44,4334.87,4604.62,4097.95,4613.85,4201.54,4224.62,4206.67,4283.59,4626.67,4370.26,0
108,4312.31,4018.46,4277.44,4142.05,4346.15,4606.15,4096.92,4622.05,4213.85,4240,4217.44,4288.72,4636.41,4380,0
109,4311.79,4013.33,4279.49,4138.97,4346.15,4608.21,4094.87,4623.59,4213.85,4243.59,4221.54,4290.77,4635.38,4373.33,0
110,4306.15,4002.56,4277.44,4135.38,4339.49,4602.05,4094.36,4625.13,4208.72,4237.44,4216.41,4288.72,4628.21,4366.15,0
111,4301.54,4001.03,4274.36,4135.38,4341.03,4600,4088.72,4628.72,4210.77,4236.41,4209.74,4284.1,4623.08,4369.23,0
112,4308.72,4009.74,4268.72,4136.92,4343.59,4608.21,4083.08,4625.64,4213.33,4241.54,4210.26,4282.05,4624.62,4366.67,0
113,4315.38,4021.54,4267.18,4140.51,4347.18,4613.33,4089.23,4621.03,4209.74,4238.46,4213.85,4282.05,4625.13,4359.49,0
114,4306.67,4016.92,4268.72,4142.05,4350.77,4609.23,4097.44,4620.51,4203.59,4226.67,4206.15,4277.44,4616.41,4351.79,0
115,4296.41,4003.59,4262.56,4136.92,4340.51,4605.13,4096.41,4619.49,4197.44,4214.36,4193.33,4270.77,4607.18,4347.18,0
116,4298.97,4006.15,4265.64,4131.79,4329.23,4604.62,4088.72,4612.82,4194.87,4211.79,4196.92,4276.41,4613.85,4358.97,0
117,4314.87,4018.97,4283.08,4142.05,4337.95,4600,4084.1,4608.72,4201.54,4226.67,4215.38,4293.33,4629.74,4377.95,0
118,4323.08,4019.49,4289.74,4151.79,4345.13,4596.92,4083.08,4613.85,4211.28,4244.62,4224.1,4300.51,4635.9,4378.97,0
119,4309.74,4008.21,4281.03,4141.03,4334.36,4602.05,4084.62,4618.97,4212.82,4242.05,4213.33,4289.74,4625.64,4363.59,0
120,4296.41,4000.51,4274.87,4131.79,4331.79,4603.08,4086.67,4622.05,4209.23,4228.72,4204.1,4280,4614.36,4356.41,0
121,4305.64,4003.08,4278.97,4140,4346.15,4600,4086.15,4623.59,4207.18,4231.28,4207.18,4284.1,4617.95,4358.46,0
122,4318.46,4005.13,4281.54,4143.08,4348.21,4605.64,4089.23,4624.1,4207.18,4231.28,4211.79,4288.72,4623.08,4362.05,0
123,4313.33,4001.54,4277.95,4136.92,4338.46,4609.74,4091.79,4631.28,4214.36,4227.18,4211.79,4288.72,4624.62,4370.77,0
124,4305.13,4004.1,4278.97,4137.44,4340,4602.56,4087.69,4635.9,4220,4235.38,4218.46,4291.79,4630.77,4377.95,0
125,4306.67,4008.21,4276.92,4142.05,4343.08,4602.05,4084.1,4631.79,4218.97,4237.44,4225.13,4293.33,4631.79,4371.79,0
126,4309.23,4004.62,4264.62,4136.92,4338.97,4608.72,4085.13,4629.23,4215.9,4230.26,4217.95,4286.67,4622.56,4361.03,0
127,4308.21,4002.05,4260,4130.26,4345.13,4607.69,4082.05,4626.15,4208.21,4231.28,4210.77,4278.46,4617.44,4362.56,0
128,4304.62,4001.54,4260,4127.69,4356.92,4604.62,4080.51,4616.92,4198.97,4232.31,4211.79,4275.38,4622.05,4362.05,0
129,4301.03,4002.05,4250.26,4123.08,4350.77,4606.67,4085.13,4614.87,4196.41,4223.59,4210.26,4271.79,4621.54,4357.44,0
130,4303.59,4005.64,4250.26,4124.62,4343.08,4607.18,4082.56,4620.51,4197.95,4223.59,4208.21,4272.82,4616.41,4359.49,0
131,4305.64,4007.69,4261.54,4134.36,4352.82,4606.15,4078.46,4624.1,4200.51,4231.79,4212.82,4282.56,4615.9,4360.51,0
132,4300.51,4003.08,4258.46,4131.28,4352.31,4606.15,4076.41,4624.1,4206.15,4233.33,4212.31,4283.59,4614.36,4352.31,0
133,4295.38,3997.44,4245.13,4118.97,4335.38,4602.56,4075.38,4620,4204.1,4225.64,4203.59,4270.77,4609.23,4345.64,0
134,4298.46,3998.46,4244.1,4120,4333.85,4600,4076.41,4612.31,4193.33,4220,4202.56,4265.13,4607.69,4352.31,0
135,4304.62,4004.1,4253.33,4125.13,4345.64,4601.54,4080.51,4610.77,4192.31,4224.1,4208.72,4273.33,4611.28,4361.54,0
136,4305.64,4002.05,4260.51,4120.51,4343.59,4603.59,4085.13,4618.46,4195.38,4219.49,4209.74,4279.49,4611.79,4360.51,0
137,4301.54,3998.97,4262.56,4118.97,4337.44,4603.59,4082.05,4619.49,4195.38,4218.97,4211.28,4284.1,4614.87,4355.9,0
138,4300,4005.13,4262.05,4122.56,4341.03,4599.49,4078.46,4614.36,4202.05,4235.38,4218.46,4289.23,4625.13,4362.05,0
139,4304.62,4009.74,4263.59,4124.62,4349.23,4599.49,4084.62,4620,4209.74,4243.08,4223.08,4288.72,4628.21,4369.23,0
140,4312.31,4005.13,4268.72,4123.59,4349.74,4606.67,4093.33,4629.23,4208.21,4236.41,4223.59,4290.77,4627.18,4368.72,0
141,4315.38,4003.08,4272.31,4123.08,4345.13,4611.79,4092.82,4629.74,4213.85,4242.05,4225.13,4295.9,4632.82,4372.31,0
142,4309.74,4005.13,4269.23,4121.54,4344.62,4607.18,4088.72,4628.72,4221.03,4245.13,4224.1,4291.79,4632.31,4375.38,0
143,4300,4002.05,4261.03,4117.95,4345.64,4601.03,4087.18,4624.62,4209.23,4231.79,4215.9,4283.08,4623.08,4367.69,0
144,4300,4001.54,4262.05,4121.03,4342.56,4600.51,4085.13,4618.97,4200.51,4228.72,4209.23,4284.1,4616.92,4357.95,0
145,4305.64,4007.18,4265.64,4126.15,4341.54,4603.08,4088.21,4620,4202.05,4231.79,4211.28,4286.15,4615.9,4356.41,0
146,4297.95,4004.1,4255.38,4117.95,4337.95,4602.05,4089.74,4620.51,4197.95,4220.51,4209.74,4278.97,4610.26,4354.36,0
147,4287.18,3992.31,4245.13,4105.64,4328.72,4600.51,4087.18,4618.97,4201.03,4214.87,4203.59,4272.31,4605.13,4353.33,0
148,4288.21,3993.85,4246.67,4110.77,4332.82,4604.1,4086.67,4625.64,4212.31,4228.72,4206.67,4277.44,4609.23,4358.97,0
149,4295.38,4007.18,4250.26,4117.95,4345.13,4606.15,4085.13,4627.18,4208.21,4237.44,4215.9,4284.62,4618.46,4365.13,0
150,4302.56,4009.23,4252.31,4116.92,4342.05,4601.54,4078.97,4618.97,4198.46,4230.77,4213.85,4284.62,4617.95,4364.1,0
151,4304.1,4002.56,4261.03,4120.51,4334.36,4597.95,4074.87,4618.46,4202.56,4225.64,4210.77,4284.62,4611.28,4360.51,0
152,4302.56,4003.59,4265.64,4118.46,4342.05,4601.54,4079.49,4623.59,4207.69,4224.62,4215.9,4288.72,4614.87,4364.1,0
153,4303.59,4007.69,4256.92,4110.26,4343.08,4604.62,4084.62,4622.05,4206.67,4228.72,4219.49,4289.23,4623.08,4367.18,0
154,4299.49,4005.13,4250.77,4114.36,4330.26,4601.03,4084.1,4614.36,4199.49,4231.28,4213.33,4288.21,4618.97,4360.51,0
155,4288.21,3996.92,4249.74,4120,4328.72,4597.44,4077.95,4607.18,4191.79,4226.15,4204.1,4283.59,4606.15,4349.23,0
156,4286.15,3991.79,4242.56,4110.26,4333.33,4596.41,4073.33,4605.64,4192.82,4217.44,4200.51,4274.36,4601.54,4347.18,0
157,4291.79,3991.28,4232.31,4102.05,4330.26,4597.95,4078.46,4613.33,4201.54,4220,4204.1,4272.82,4609.23,4355.9,0
158,4289.23,3991.28,4230.77,4104.62,4326.67,4600,4087.69,4629.74,4212.82,4230.26,4209.23,4276.41,4615.38,4353.85,0
159,4286.67,3989.74,4230.77,4101.03,4327.18,4602.05,4091.28,4640,4218.46,4236.41,4209.74,4273.33,4610.77,4344.1,0
160,4293.85,3994.87,4229.23,4102.05,4328.72,4598.46,4083.59,4629.23,4212.31,4235.38,4206.15,4273.85,4607.69,4348.72,0
161,4297.95,4001.54,4235.9,4115.38,4332.31,4592.82,4073.33,4611.28,4196.92,4228.72,4206.15,4279.49,4611.28,4357.44,0
162,4292.82,3996.41,4241.03,4116.92,4332.82,4590.77,4069.74,4607.69,4189.23,4223.59,4209.23,4277.95,4610.26,4354.36,0
163,4289.74,3992.82,4235.38,4107.69,4328.21,4593.33,4069.23,4610.77,4191.28,4215.38,4204.1,4271.79,4603.08,4348.21,0
164,4295.9,4001.54,4232.82,4106.15,4329.23,4592.82,4065.64,4609.23,4192.82,4211.28,4196.41,4278.46,4604.1,4352.31,0
165,4303.08,4007.69,4235.9,4112.31,4330.77,4589.74,4065.13,4611.28,4193.33,4217.95,4203.08,4286.15,4608.21,4357.44,0
166,4301.54,4003.08,4236.41,4110.77,4327.69,4592.82,4076.92,4618.97,4195.38,4217.95,4207.18,4279.49,4602.56,4355.38,0
167,4295.9,4000,4231.79,4106.15,4325.13,4599.49,4081.03,4620,4196.92,4214.36,4202.05,4274.36,4598.97,4351.79,0
168,4300.51,4007.69,4232.82,4109.74,4326.67,4598.97,4072.31,4611.79,4195.9,4221.03,4203.59,4278.97,4606.67,4358.97,0
169,4318.46,4020,4240.51,4116.41,4330.26,4598.97,4072.31,4610.77,4199.49,4226.67,4207.69,4282.56,4606.15,4372.82,0
170,4335.9,4029.23,4245.13,4120,4330.26,4602.05,4077.95,4618.97,4207.69,4221.54,4205.64,4283.08,4603.59,4383.59,0
171,4351.79,4044.62,4250.77,4130.26,4332.82,4594.36,4070.26,4615.9,4201.54,4218.97,4208.21,4286.15,4616.92,4395.38,0
172,4375.38,4072.82,4263.08,4150.26,4337.95,4582.56,4056.92,4599.49,4185.13,4219.49,4214.87,4290.26,4628.21,4412.31,0
173,4401.54,4090.26,4267.18,4156.41,4336.92,4586.15,4053.33,4598.97,4188.72,4217.95,4217.44,4291.79,4630.77,4428.72,0
174,4412.31,4094.36,4262.56,4149.23,4332.31,4591.79,4057.44,4611.28,4195.9,4215.9,4220,4292.82,4638.46,4437.44,0
175,4416.92,4106.67,4261.03,4153.33,4334.87,4589.23,4062.56,4604.62,4180,4207.18,4219.49,4292.82,4643.08,4442.05,0
176,4430.26,4123.08,4268.21,4156.92,4336.92,4592.31,4069.74,4592.82,4172.82,4203.08,4217.95,4298.97,4642.05,4452.31,0
177,4447.18,4124.62,4277.44,4154.36,4331.28,4597.44,4073.33,4597.95,4183.08,4209.23,4220.51,4307.18,4649.23,4467.69,0
178,4454.36,4124.1,4280.51,4160,4328.72,4590.26,4067.18,4600,4181.03,4209.74,4225.64,4309.74,4659.49,4477.95,0
179,4458.46,4138.97,4282.05,4168.72,4330.77,4583.59,4062.56,4597.95,4182.05,4208.72,4232.31,4312.82,4668.21,4481.03,0
180,4472.31,4154.87,4291.79,4174.87,4336.92,4587.69,4070.26,4611.28,4202.05,4225.13,4245.13,4322.05,4681.54,4491.79,0
181,4480,4156.92,4297.44,4182.56,4341.03,4589.74,4073.85,4623.08,4209.74,4240,4258.97,4329.74,4695.9,4502.05,0
182,4474.87,4152.82,4291.79,4185.64,4340,4587.18,4068.72,4618.97,4204.1,4235.9,4259.49,4330.26,4700.51,4501.03,0
183,4477.44,4155.38,4294.36,4184.62,4341.03,4587.18,4070.26,4613.33,4198.46,4229.74,4254.87,4331.79,4697.44,4500,0
184,4484.62,4155.9,4298.46,4182.05,4341.54,4589.74,4076.41,4603.59,4186.67,4230.26,4257.44,4335.38,4700.51,4505.13,0
185,4483.59,4150.77,4294.36,4176.92,4342.56,4593.33,4073.85,4593.33,4183.08,4232.82,4264.62,4335.9,4714.87,4514.36,0
186,4487.69,4153.33,4298.97,4178.97,4348.72,4599.49,4069.74,4591.28,4185.13,4234.87,4268.72,4337.95,4728.21,4521.54,0
187,4490.77,4153.85,4309.74,4182.05,4347.69,4600,4071.28,4589.23,4176.41,4233.33,4269.23,4340,4729.23,4518.97,0
188,4481.54,4140.51,4309.74,4174.87,4336.41,4590.77,4070.77,4584.62,4173.33,4230.77,4273.33,4341.54,4731.28,4520.51,0
189,4482.56,4132.31,4308.21,4168.72,4330.77,4583.59,4068.72,4588.72,4185.13,4237.95,4282.05,4349.23,4744.62,4535.38,0
190,4487.69,4133.33,4311.28,4168.21,4335.38,4586.15,4073.85,4596.92,4192.82,4247.18,4287.18,4353.33,4753.85,4535.9,0
191,4481.54,4129.74,4308.72,4168.72,4335.9,4587.18,4077.44,4594.87,4186.15,4243.08,4283.08,4347.18,4748.72,4524.62,0
192,4477.95,4117.95,4306.15,4165.13,4327.69,4582.05,4074.36,4593.33,4183.08,4230.77,4276.41,4343.08,4746.15,4527.18,0
193,4475.9,4106.15,4304.1,4156.41,4325.64,4584.62,4070.77,4595.38,4182.56,4221.54,4269.74,4341.54,4746.15,4528.72,0
194,4471.28,4104.1,4303.59,4151.79,4332.82,4591.28,4068.21,4587.69,4176.92,4224.62,4273.33,4341.03,4751.28,4534.36,0
195,4484.1,4109.74,4308.21,4157.44,4336.41,4584.62,4066.67,4581.03,4181.54,4243.08,4296.41,4351.28,4781.54,4560,0
196,4493.85,4103.59,4314.36,4158.97,4330.26,4576.41,4070.26,4591.28,4199.49,4262.56,4313.85,4364.1,4806.15,4573.33,0
197,4479.49,4085.64,4310.77,4153.85,4324.62,4580.51,4076.92,4601.54,4204.1,4263.08,4306.67,4361.03,4793.85,4554.36,0
198,4463.59,4072.82,4300.51,4147.18,4324.62,4587.18,4077.95,4598.46,4197.44,4251.79,4297.44,4351.79,4780,4545.64,0
199,4461.03,4063.08,4297.95,4142.05,4324.62,4587.18,4075.9,4605.13,4209.23,4253.33,4302.56,4355.9,4786.15,4555.9,0
200,4457.44,4050.77,4299.49,4134.36,4323.08,4585.64,4072.82,4618.97,4217.95,4258.46,4299.49,4358.97,4781.54,4548.21,0
201,4450.77,4045.13,4289.74,4124.1,4319.49,4586.15,4067.69,4614.87,4206.15,4255.9,4290.77,4348.21,4774.87,4537.44,0
202,4448.72,4042.56,4275.38,4125.64,4320,4586.15,4066.15,4608.72,4202.05,4253.33,4294.87,4339.49,4785.64,4542.05,0
203,4454.87,4039.49,4281.03,4134.36,4326.67,4587.18,4069.23,4613.85,4204.1,4257.95,4305.64,4345.64,4796.92,4551.79,0
204,4465.13,4041.54,4298.46,4138.46,4331.79,4591.79,4070.77,4612.82,4203.59,4270.26,4318.97,4358.46,4814.36,4566.15,0
205,4468.21,4044.62,4305.13,4138.46,4332.82,4593.33,4070.26,4605.13,4210.77,4279.49,4331.28,4367.69,4833.85,4571.79,0
206,4461.03,4041.03,4300,4137.95,4332.31,4592.31,4073.85,4607.18,4222.05,4274.36,4325.64,4365.13,4826.67,4558.46,0
207,4452.82,4032.31,4295.38,4130.26,4330.26,4592.31,4078.46,4620,4227.18,4268.72,4312.31,4353.33,4808.21,4549.23,0
208,4445.13,4017.95,4292.82,4121.54,4325.13,4591.79,4077.44,4628.72,4229.23,4273.33,4316.92,4350.77,4810.26,4552.82,1
209,4438.46,4005.64,4287.69,4120.51,4321.03,4589.74,4070.77,4628.21,4224.1,4272.82,4319.49,4356.41,4811.28,4546.67,1
210,4432.31,3998.46,4281.54,4115.38,4314.87,4583.59,4063.59,4621.03,4204.1,4255.38,4304.1,4351.28,4795.9,4533.85,1
211,4427.18,3990.26,4281.03,4107.18,4310.77,4574.87,4061.03,4608.21,4188.21,4238.97,4297.44,4343.08,4783.59,4530.77,1
212,4426.67,3987.69,4285.13,4108.21,4314.36,4575.9,4063.59,4594.87,4181.54,4235.38,4301.54,4345.13,4784.1,4533.33,1
213,4427.69,3988.21,4284.62,4114.36,4316.41,4581.54,4069.74,4588.72,4180.51,4240.51,4303.08,4348.21,4793.85,4533.33,1
214,4419.49,3983.08,4280.51,4111.79,4313.85,4581.03,4072.82,4595.9,4196.92,4250.77,4307.18,4347.69,4799.49,4528.72,1
215,4412.82,3982.05,4278.97,4108.21,4314.87,4578.97,4073.33,4617.95,4228.72,4263.59,4312.31,4346.15,4796.92,4526.15,1
216,4411.28,3977.44,4279.49,4109.74,4317.95,4584.62,4078.46,4637.95,4242.56,4271.28,4310.77,4343.08,4798.97,4522.05,1
217,4403.59,3964.62,4278.97,4106.67,4322.56,4594.36,4085.13,4637.95,4235.38,4274.87,4308.21,4338.97,4801.54,4512.82,1
218,4395.9,3965.13,4274.36,4106.67,4327.18,4601.03,4086.15,4634.87,4236.92,4278.97,4307.69,4340.51,4791.79,4504.1,1
219,4393.33,3973.85,4267.18,4111.79,4327.18,4602.56,4080.51,4637.44,4241.03,4276.41,4305.13,4341.54,4786.15,4500,1
220,4388.72,3968.72,4261.54,4107.18,4322.56,4598.97,4074.87,4629.74,4228.72,4269.74,4304.1,4338.97,4791.79,4502.56,1
221,4379.49,3953.33,4264.1,4094.36,4318.97,4593.33,4072.82,4617.44,4217.95,4268.72,4303.08,4335.38,4788.21,4496.92,1
222,4371.79,3944.62,4262.05,4089.23,4316.41,4588.21,4072.31,4618.46,4223.59,4266.15,4297.44,4330.26,4778.46,4480.51,1
223,4366.15,3940.51,4251.79,4086.67,4311.28,4587.69,4075.9,4625.13,4228.21,4262.05,4293.85,4326.67,4774.36,4477.44,1
224,4362.56,3934.87,4250.26,4080,4310.26,4591.28,4081.54,4631.28,4230.26,4262.56,4295.9,4329.23,4768.72,4484.1,1
225,4363.08,3934.87,4261.03,4078.46,4319.49,4593.33,4084.62,4635.9,4235.38,4266.15,4300,4337.95,4766.67,4483.59,1
226,4366.67,3941.54,4263.08,4083.08,4326.67,4591.79,4081.03,4635.9,4235.9,4269.23,4301.54,4340,4773.33,4478.46,1
227,4361.54,3934.87,4250.26,4080.51,4321.54,4588.72,4082.05,4633.85,4225.64,4263.59,4292.82,4329.23,4769.74,4467.69,1
228,4348.21,3919.49,4244.62,4066.67,4317.95,4587.18,4090.26,4631.28,4221.03,4255.9,4286.15,4323.59,4755.9,4460.51,1
229,4347.69,3922.05,4249.74,4064.62,4322.56,4587.69,4090.77,4627.69,4227.69,4266.67,4293.85,4331.79,4759.49,4472.82,1
230,4354.87,3929.23,4250.77,4073.85,4325.13,4586.67,4086.15,4625.64,4227.69,4277.44,4303.59,4335.9,4766.67,4477.95,1
231,4350.26,3925.64,4247.18,4072.82,4325.64,4591.79,4086.67,4630.77,4231.79,4275.38,4304.1,4331.79,4763.59,4466.67,1
232,4348.72,3926.15,4252.82,4066.67,4325.64,4598.46,4090.26,4642.56,4248.21,4284.62,4306.67,4337.95,4769.74,4471.79,1
233,4357.44,3930.77,4261.03,4069.74,4321.03,4598.97,4093.85,4653.85,4256.92,4294.87,4311.79,4345.64,4775.38,4479.49,1
234,4354.87,3930.77,4258.46,4069.23,4318.46,4600.51,4097.44,4658.46,4251.28,4285.64,4309.23,4339.49,4766.15,4469.23,1
235,4343.59,3927.18,4258.46,4065.13,4325.64,4607.18,4102.56,4654.36,4245.64,4280.51,4304.1,4333.33,4760.51,4461.54,1
236,4345.13,3926.15,4262.05,4072.31,4331.28,4610.77,4107.18,4651.28,4248.72,4286.67,4303.08,4335.9,4760,4463.59,1
237,4348.72,3926.15,4256.41,4075.38,4322.56,4604.1,4107.69,4650.26,4248.72,4284.62,4298.97,4332.82,4752.31,4460.51,1
238,4340.51,3921.54,4253.85,4064.62,4313.33,4596.92,4105.13,4646.67,4239.49,4275.38,4290.26,4326.67,4745.13,4453.85,1
239,4331.28,3914.87,4255.38,4061.03,4316.41,4598.97,4103.08,4644.1,4230.77,4269.23,4284.62,4328.72,4738.97,4450.26,1
240,4327.69,3911.79,4248.21,4065.13,4321.54,4606.15,4103.08,4650.26,4243.59,4271.79,4287.18,4329.74,4735.9,4446.67,1
241,4322.56,3910.26,4243.08,4062.56,4319.49,4607.18,4104.1,4660.51,4262.56,4282.05,4292.31,4327.18,4743.59,4442.56,1
242,4315.9,3907.69,4246.15,4058.46,4317.44,4603.08,4103.08,4661.54,4257.44,4287.18,4291.79,4328.72,4744.62,4439.49,1
243,4312.82,3906.15,4247.18,4058.97,4316.41,4602.56,4101.03,4649.23,4238.46,4278.46,4286.67,4328.21,4733.33,4437.44,1
244,4312.31,3908.21,4249.23,4059.49,4313.85,4603.59,4097.95,4639.49,4231.28,4267.69,4284.1,4323.08,4728.72,4434.87,1
245,4313.85,3908.21,4251.79,4058.97,4314.87,4603.59,4101.03,4648.72,4243.08,4268.72,4281.54,4322.56,4730.26,4433.85,1
246,4316.41,3905.64,4249.23,4058.46,4318.97,4603.08,4106.15,4656.92,4249.23,4276.92,4281.03,4323.59,4728.72,4433.33,1
247,4317.95,3912.82,4248.21,4062.56,4322.56,4603.08,4101.54,4648.21,4241.03,4275.9,4284.1,4318.97,4729.23,4435.38,1
248,4318.46,3917.95,4250.26,4065.64,4323.08,4604.62,4098.46,4650.26,4240.51,4270.77,4280,4313.85,4730.26,4432.82,1
249,4316.92,3908.72,4253.33,4062.56,4324.62,4605.64,4105.13,4657.44,4244.1,4269.23,4270.77,4316.92,4722.05,4427.18,1
250,4317.95,3913.33,4253.33,4067.18,4328.21,4606.67,4105.64,4647.18,4234.87,4266.15,4270.77,4322.05,4712.82,4425.64,1
251,4321.03,3934.36,4250.77,4075.9,4325.64,4607.18,4097.95,4637.95,4227.18,4262.56,4271.28,4321.54,4707.69,4422.05,1
252,4317.44,3938.46,4248.72,4072.82,4322.05,4607.18,4098.46,4645.64,4234.87,4256.41,4256.92,4316.92,4694.36,4409.23,1
253,4308.21,3933.33,4249.23,4071.79,4324.62,4606.15,4102.56,4650.26,4237.95,4252.82,4250.26,4309.23,4679.49,4399.49,1
254,4309.74,3943.08,4251.28,4083.59,4329.74,4603.08,4097.95,4643.08,4236.92,4258.46,4258.46,4304.1,4680,4403.08,1
255,4313.33,3950.26,4249.74,4084.62,4327.69,4601.03,4092.82,4636.92,4234.87,4261.03,4257.95,4304.62,4685.64,4397.95,1
256,4301.03,3937.95,4243.59,4074.36,4324.1,4602.56,4092.82,4631.79,4223.08,4248.21,4246.15,4302.56,4676.92,4383.59,1
257,4287.18,3926.15,4241.03,4071.79,4328.21,4602.56,4089.74,4626.67,4212.31,4235.9,4238.46,4297.95,4666.15,4382.56,1
258,4288.72,3929.23,4245.64,4075.9,4331.79,4603.08,4087.18,4629.74,4222.05,4238.46,4239.49,4299.49,4666.15,4386.67,1
259,4298.46,3938.97,4245.64,4080.51,4331.28,4606.67,4095.38,4638.46,4231.28,4245.13,4242.56,4304.1,4669.23,4383.59,1
260,4297.95,3940.51,4237.44,4080.51,4328.21,4606.67,4103.08,4639.49,4221.03,4242.05,4237.95,4300,4665.64,4375.38,1
261,4289.74,3936.92,4236.41,4073.33,4326.15,4604.62,4100.51,4637.95,4215.9,4235.38,4232.31,4295.38,4657.95,4372.82,1
262,4294.87,3940.51,4244.62,4075.9,4333.85,4607.69,4097.95,4639.49,4223.08,4242.56,4244.62,4303.08,4664.1,4387.18,1
263,4307.69,3947.18,4249.74,4088.21,4337.95,4609.74,4094.87,4638.46,4229.23,4257.44,4260,4313.33,4682.56,4398.46,1
264,4303.08,3942.05,4246.15,4087.18,4330.26,4605.64,4090.26,4639.49,4233.85,4263.59,4258.46,4309.74,4686.15,4389.74,1
265,4292.31,3933.33,4239.49,4075.9,4323.59,4602.56,4088.72,4639.49,4227.69,4257.95,4251.79,4304.62,4672.31,4379.49,1
266,4292.31,3933.85,4239.49,4073.33,4326.67,4602.56,4089.23,4629.23,4211.28,4248.72,4251.28,4304.62,4667.18,4381.03,1
267,4292.31,3934.87,4243.08,4076.92,4331.79,4607.18,4089.23,4622.05,4209.23,4247.18,4252.82,4302.56,4675.9,4385.64,1
268,4291.79,3933.33,4243.59,4077.95,4332.82,4616.92,4094.87,4631.28,4226.67,4251.28,4252.82,4302.05,4677.95,4384.1,1
269,4290.26,3931.28,4236.92,4074.87,4328.72,4615.38,4095.38,4638.97,4230.26,4247.18,4243.08,4300,4665.13,4376.41,1
270,4285.64,3930.26,4232.31,4075.38,4328.21,4601.03,4086.15,4632.31,4219.49,4243.59,4235.9,4295.38,4659.49,4375.38,1
271,4289.74,3939.49,4238.46,4087.69,4336.41,4599.49,4083.59,4626.67,4218.97,4249.23,4247.69,4299.49,4670.26,4385.13,1
272,4301.54,3946.67,4248.72,4092.31,4335.9,4608.72,4089.23,4633.85,4225.64,4253.85,4255.9,4310.77,4675.9,4388.72,1
273,4298.46,3935.38,4250.26,4077.95,4324.62,4607.18,4092.82,4642.56,4226.67,4250.77,4247.18,4311.28,4665.13,4378.46,1
274,4284.62,3922.56,4238.46,4070.26,4316.41,4600,4088.72,4638.46,4222.56,4244.62,4235.38,4298.46,4654.36,4367.18,1
275,4280,3927.18,4230.77,4075.9,4314.87,4602.05,4085.13,4630.26,4220,4236.92,4229.74,4286.67,4650.77,4362.05,1
276,4283.59,3934.87,4235.38,4078.97,4321.54,4608.21,4094.36,4630.77,4219.49,4236.41,4230.26,4287.69,4651.28,4363.08,1
277,4284.1,3937.44,4245.64,4085.64,4330.77,4608.72,4105.13,4634.87,4223.08,4244.1,4236.41,4300,4656.92,4367.18,1
278,4287.18,3939.49,4250.26,4091.28,4331.79,4607.18,4102.56,4636.92,4228.72,4251.79,4241.54,4310.26,4664.62,4375.9,1
279,4291.28,3943.59,4248.21,4088.72,4330.77,4612.82,4103.59,4641.03,4228.72,4253.85,4245.64,4310.77,4668.72,4380,1
280,4287.18,3946.15,4247.69,4087.69,4333.85,4618.46,4113.33,4644.62,4226.67,4253.33,4252.31,4306.15,4667.69,4374.36,1
281,4284.1,3945.13,4247.69,4091.28,4332.82,4613.85,4108.72,4642.05,4227.69,4254.87,4250.26,4302.05,4667.69,4369.23,1
282,4291.28,3946.67,4247.18,4093.85,4330.26,4609.23,4100.51,4639.49,4230.26,4254.36,4244.1,4302.56,4667.18,4372.82,1
283,4289.74,3947.18,4249.23,4094.36,4328.72,4608.21,4100.51,4638.97,4224.1,4252.82,4247.18,4309.23,4663.59,4374.36,1
284,4278.46,3941.54,4246.67,4086.15,4321.54,4603.08,4094.87,4632.82,4212.82,4244.62,4241.54,4307.18,4654.87,4363.08,1
285,4275.38,3937.95,4237.44,4079.49,4316.92,4599.49,4091.28,4627.18,4214.87,4233.85,4224.1,4292.82,4643.59,4354.87,1
286,4279.49,3937.95,4237.95,4086.15,4323.08,4602.05,4096.92,4631.79,4224.1,4231.28,4220.51,4288.72,4643.08,4357.95,1
287,4280.51,3939.49,4247.69,4089.74,4327.18,4608.21,4100,4637.95,4222.05,4232.82,4229.74,4295.9,4647.18,4358.97,1
288,4280,3941.03,4248.21,4085.13,4324.62,4612.82,4096.92,4634.87,4218.97,4237.95,4232.82,4296.92,4648.21,4358.46,1
289,4284.1,3942.05,4246.15,4085.64,4326.67,4612.82,4097.95,4631.79,4223.59,4248.72,4238.46,4298.46,4653.85,4369.23,1
290,4286.15,3936.92,4249.74,4087.69,4327.18,4609.23,4101.03,4631.79,4226.67,4253.85,4245.64,4306.67,4660,4371.79,1
291,4278.46,3932.82,4249.23,4086.15,4324.1,4607.69,4103.08,4634.87,4229.23,4246.67,4242.05,4307.18,4652.82,4358.97,1
292,4272.82,3933.85,4244.62,4085.64,4326.67,4611.28,4106.15,4640,4229.23,4241.54,4232.82,4299.49,4642.05,4353.33,1
293,4277.95,3933.33,4245.64,4085.13,4330.26,4616.41,4107.69,4643.08,4227.69,4244.62,4233.33,4298.97,4642.05,4359.49,1
294,4280.51,3935.38,4248.21,4086.67,4329.74,4617.44,4107.69,4646.15,4237.95,4250.77,4238.97,4303.59,4649.74,4364.62,1
295,4276.92,3940,4247.69,4088.72,4331.79,4616.41,4106.15,4646.67,4243.59,4251.28,4239.49,4303.08,4654.36,4365.13,1
296,4283.59,3944.62,4248.72,4093.85,4332.31,4613.33,4098.46,4633.85,4221.54,4245.64,4237.44,4303.08,4651.28,4365.64,1
297,4292.31,3951.28,4255.9,4101.54,4329.23,4610.26,4091.28,4622.05,4205.64,4243.08,4241.54,4309.74,4653.33,4370.26,1
298,4290.26,3954.36,4257.44,4102.05,4330.26,4610.26,4095.9,4625.64,4216.41,4241.03,4243.59,4311.28,4657.44,4371.79,1
299,4285.64,3945.13,4249.23,4092.31,4330.26,4610.26,4104.62,4638.46,4223.08,4236.92,4231.79,4303.08,4648.72,4363.59,1
300,4284.1,3937.44,4245.64,4089.74,4330.26,4613.33,4105.64,4644.62,4218.46,4236.92,4221.54,4299.49,4636.92,4358.46,1
301,4282.56,3937.44,4249.23,4091.79,4329.23,4618.46,4103.08,4638.97,4220,4235.38,4223.08,4301.54,4631.79,4360,1
302,4284.62,3944.62,4253.33,4093.85,4326.15,4615.9,4103.59,4632.31,4224.62,4233.33,4224.1,4301.54,4630.77,4363.59,1
303,4297.44,3956.92,4258.97,4103.59,4331.28,4614.87,4103.08,4633.33,4223.08,4238.46,4226.15,4305.13,4640.51,4376.41,1
304,4312.31,3962.05,4262.56,4108.21,4339.49,4621.54,4103.59,4637.95,4221.54,4243.08,4234.87,4312.82,4655.38,4392.82,1
305,4324.62,3966.15,4268.72,4104.62,4338.97,4620.51,4102.56,4641.54,4223.08,4242.56,4244.1,4317.95,4663.08,4405.64,1
306,4338.46,3975.9,4280,4112.82,4336.41,4614.87,4098.97,4643.59,4221.03,4247.18,4253.85,4325.13,4672.31,4416.41,1
307,4344.1,3975.9,4283.08,4121.03,4333.85,4615.38,4101.54,4634.36,4213.85,4249.23,4258.97,4331.28,4678.97,4418.46,1
308,4341.54,3970.77,4278.97,4113.33,4329.74,4613.85,4103.59,4627.18,4216.41,4243.08,4253.85,4328.21,4672.31,4416.92,1
309,4344.62,3980,4278.97,4110.26,4328.72,4611.79,4095.38,4633.33,4224.1,4237.95,4245.13,4325.13,4669.74,4423.59,1
310,4355.38,3984.62,4279.49,4115.9,4329.23,4614.36,4089.23,4634.36,4216.92,4235.38,4246.15,4325.13,4675.9,4429.74,1
311,4358.46,3977.95,4278.46,4114.87,4328.72,4617.44,4094.36,4623.59,4209.74,4234.36,4247.69,4320,4671.79,4424.62,1
312,4356.41,3983.59,4280.51,4115.38,4333.85,4616.92,4096.92,4622.56,4217.44,4236.41,4243.59,4314.36,4665.64,4422.05,1
313,4365.13,3994.87,4290.26,4130.77,4335.9,4609.74,4096.41,4628.72,4216.41,4233.85,4247.69,4322.05,4670.77,4432.31,1
314,4372.31,3993.33,4297.95,4135.38,4330.77,4602.05,4100.51,4626.67,4197.95,4227.18,4252.31,4331.79,4673.33,4438.46,1
315,4367.69,3987.18,4290.26,4125.13,4330.77,4607.69,4106.15,4621.54,4191.79,4223.59,4244.1,4330.26,4667.18,4432.82,1
316,4362.05,3986.67,4281.03,4120.51,4337.95,4617.95,4106.15,4622.56,4204.62,4222.56,4235.9,4321.54,4663.59,4425.13,1
317,4356.92,3978.97,4276.92,4114.87,4332.31,4619.49,4104.1,4626.67,4212.82,4222.56,4239.49,4315.9,4663.59,4418.46,1
318,4351.79,3970.26,4265.64,4104.1,4324.62,4616.41,4102.56,4627.69,4210.77,4228.72,4240.51,4315.38,4666.67,4420,1
319,4356.92,3979.49,4266.15,4108.72,4335.38,4617.95,4100,4627.69,4211.79,4232.31,4240,4320.51,4669.74,4428.21,1
320,4365.13,3988.21,4278.97,4120.51,4344.62,4623.59,4101.54,4628.21,4213.85,4230.77,4244.62,4325.64,4667.18,4430.77,1
321,4362.56,3983.08,4273.33,4115.38,4336.41,4624.62,4104.62,4627.18,4212.82,4233.85,4245.13,4324.62,4663.08,4421.03,1
322,4358.46,3978.97,4268.21,4104.62,4330.26,4615.9,4103.08,4623.08,4205.13,4235.9,4244.62,4322.05,4663.08,4411.79,1
323,4363.08,3981.03,4276.92,4106.67,4333.85,4608.21,4097.44,4614.36,4194.36,4230.26,4247.69,4323.59,4667.18,4418.46,1
324,4366.67,3981.54,4274.36,4112.82,4334.87,4612.82,4093.85,4608.72,4192.82,4226.67,4247.18,4318.97,4671.28,4426.67,1
325,4355.38,3976.41,4261.03,4105.64,4330.26,4620,4097.95,4611.79,4196.92,4226.67,4235.9,4305.13,4663.08,4412.31,1
326,4338.97,3966.67,4251.79,4090.26,4326.15,4624.62,4102.05,4614.36,4195.9,4221.03,4224.1,4296.92,4648.72,4394.87,1
327,4337.44,3962.56,4249.23,4087.69,4325.64,4628.72,4104.62,4618.97,4202.05,4218.97,4225.64,4298.46,4647.18,4398.46,1
328,4344.1,3969.23,4257.44,4094.87,4330.26,4626.15,4105.13,4628.72,4217.95,4228.72,4234.36,4304.1,4653.33,4405.64,1
329,4345.13,3976.41,4264.62,4099.49,4333.33,4621.54,4101.54,4629.74,4219.49,4233.33,4238.46,4308.72,4653.85,4408.21,1
330,4350.26,3980,4264.1,4104.1,4335.38,4624.1,4098.97,4618.97,4208.21,4232.82,4242.05,4311.79,4656.92,4415.38,1
331,4354.36,3982.56,4266.15,4108.21,4337.44,4625.13,4100.51,4614.36,4209.23,4240.51,4248.72,4314.36,4665.64,4418.46,1
332,4347.18,3975.38,4266.67,4102.56,4333.33,4617.95,4097.44,4612.82,4210.77,4240.51,4248.21,4313.33,4664.1,4411.79,1
333,4343.08,3969.74,4263.08,4093.85,4326.15,4614.36,4091.79,4611.79,4204.62,4229.23,4240.51,4312.82,4654.87,4407.18,1
334,4347.18,3973.85,4264.1,4092.82,4324.62,4616.92,4095.9,4623.08,4209.74,4230.77,4236.92,4314.87,4652.31,4409.23,1
335,4346.67,3972.82,4265.13,4095.38,4327.69,4618.97,4104.1,4632.82,4215.9,4236.41,4238.46,4312.82,4653.85,4407.18,1
336,4343.59,3971.79,4265.13,4092.31,4326.67,4618.97,4100,4626.15,4205.64,4227.69,4238.46,4309.74,4654.36,4403.08,1
337,4343.08,3973.85,4265.64,4092.31,4323.59,4615.38,4093.85,4622.05,4198.97,4221.03,4236.41,4309.74,4652.31,4407.18,1
338,4344.1,3972.82,4265.13,4098.46,4326.67,4615.38,4097.95,4629.74,4207.69,4226.67,4235.9,4311.79,4647.69,4409.23,1
339,4344.1,3973.33,4264.1,4100.51,4334.87,4620.51,4103.08,4631.28,4207.18,4232.82,4237.95,4314.36,4650.77,4407.69,1
340,4341.54,3977.44,4264.62,4097.95,4336.41,4623.59,4102.56,4624.62,4202.05,4235.38,4241.03,4314.87,4659.49,4411.79,1
341,4335.38,3972.31,4263.59,4094.36,4332.82,4626.15,4105.13,4629.74,4217.44,4238.97,4242.05,4311.79,4657.95,4410.77,1
342,4329.74,3964.1,4261.03,4089.74,4330.77,4630.26,4111.28,4641.03,4232.82,4243.08,4242.05,4309.74,4655.9,4398.97,1
343,4330.77,3967.69,4260.51,4090.26,4332.31,4629.74,4115.38,4641.03,4226.67,4245.13,4243.08,4311.79,4661.54,4398.46,1
344,4337.95,3975.38,4264.62,4099.49,4333.33,4627.18,4113.33,4635.38,4218.46,4245.64,4243.08,4316.92,4661.03,4407.18,1
345,4342.05,3976.41,4270.26,4102.05,4332.31,4624.62,4108.21,4634.87,4222.56,4245.13,4241.54,4320,4653.85,4404.62,1
346,4335.9,3968.21,4268.21,4094.36,4328.72,4618.97,4106.67,4636.41,4220,4240.51,4238.46,4312.31,4648.21,4395.9,1
347,4325.13,3959.49,4261.03,4088.21,4327.18,4617.44,4105.13,4631.28,4207.18,4233.85,4231.28,4306.15,4642.56,4391.79,1
348,4321.54,3962.56,4260,4088.72,4327.69,4621.03,4103.08,4631.79,4206.67,4230.26,4226.67,4307.69,4639.49,4388.21,1
349,4326.15,3972.82,4265.13,4094.87,4332.31,4621.54,4105.13,4641.54,4226.15,4234.36,4233.85,4309.74,4645.13,4389.23,1
350,4329.74,3974.87,4268.21,4098.46,4335.38,4621.03,4109.23,4644.62,4232.31,4242.05,4237.44,4308.21,4649.74,4395.38,1
351,4325.13,3967.18,4264.62,4093.33,4333.85,4627.18,4113.33,4640,4214.36,4236.92,4229.74,4302.05,4646.15,4393.85,1
352,4325.64,3970.26,4264.62,4093.33,4331.28,4630.77,4114.87,4638.97,4208.21,4225.64,4227.69,4303.08,4644.62,4395.9,1
353,4338.97,3985.13,4272.31,4105.13,4334.36,4625.13,4112.31,4636.41,4221.54,4232.82,4239.49,4314.36,4652.82,4408.72,1
354,4348.72,3990.26,4282.56,4110.26,4341.03,4624.1,4106.67,4629.74,4220.51,4243.08,4248.21,4322.56,4661.03,4412.31,1
355,4344.1,3983.08,4281.54,4106.15,4341.03,4627.18,4105.13,4627.69,4208.21,4240,4244.62,4317.95,4658.97,4403.08,1
356,4337.95,3978.97,4271.28,4105.64,4335.38,4627.69,4110.26,4632.82,4214.36,4239.49,4242.05,4313.33,4656.92,4404.62,1
357,4337.95,3980,4265.64,4104.62,4336.41,4631.28,4112.82,4636.92,4224.1,4244.1,4243.08,4315.9,4656.41,4405.13,1
358,4332.82,3975.38,4264.62,4101.03,4343.08,4635.9,4109.23,4636.41,4215.38,4236.41,4236.41,4312.31,4645.13,4391.79,1
359,4326.67,3975.9,4263.08,4103.59,4344.62,4635.38,4105.13,4632.82,4205.13,4223.08,4227.18,4302.05,4634.87,4386.15,1
360,4332.31,3990.26,4262.56,4110.77,4343.59,4628.72,4102.56,4630.26,4216.41,4223.08,4227.18,4297.95,4635.38,4389.23,1
361,4338.46,3995.38,4264.1,4110.77,4342.56,4622.56,4100,4630.77,4225.13,4232.82,4231.79,4303.08,4637.95,4390.77,1
362,4333.85,3984.62,4265.13,4102.05,4335.38,4624.62,4102.56,4640,4222.05,4239.49,4234.36,4306.67,4642.05,4393.85,1
363,4329.74,3980,4264.1,4098.97,4331.79,4629.23,4108.21,4646.15,4224.1,4240.51,4237.44,4305.64,4644.1,4395.9,1
364,4332.31,3989.74,4265.13,4106.67,4337.44,4623.59,4105.13,4631.28,4214.87,4235.38,4235.38,4305.13,4641.54,4395.38,1
365,4332.82,3994.36,4266.15,4110.26,4339.49,4617.95,4096.92,4610.26,4191.28,4226.67,4228.72,4305.64,4635.9,4392.31,1
366,4330.77,3986.15,4263.59,4102.05,4336.41,4623.59,4099.49,4612.82,4190.77,4223.08,4223.59,4305.13,4627.69,4389.23,1
367,4332.82,3976.41,4260.51,4096.92,4333.33,4628.21,4109.23,4628.72,4208.21,4223.59,4223.08,4304.1,4626.15,4391.28,1
368,4337.44,3983.08,4266.15,4102.05,4332.31,4625.64,4108.72,4633.33,4209.74,4222.05,4223.59,4303.08,4632.82,4396.92,1
369,4344.1,4000.51,4276.92,4108.21,4337.44,4625.13,4102.56,4631.28,4210.26,4225.13,4226.15,4303.08,4634.36,4403.08,1
370,4356.41,4007.69,4281.54,4114.36,4343.08,4628.21,4105.13,4633.85,4225.64,4232.31,4234.87,4309.74,4638.97,4415.38,1
371,4365.13,4006.67,4282.56,4117.95,4341.54,4626.15,4106.67,4636.41,4228.21,4237.44,4244.62,4318.97,4651.79,4422.05,1
372,4360,4008.72,4279.49,4118.46,4341.03,4624.62,4099.49,4628.72,4210.77,4234.87,4239.49,4313.33,4648.21,4408.21,1
373,4351.28,4007.69,4274.36,4118.46,4342.56,4631.28,4102.05,4623.08,4203.59,4224.1,4226.67,4301.54,4632.82,4398.46,1
374,4352.31,4003.59,4274.36,4114.36,4338.97,4633.33,4109.74,4626.15,4211.28,4224.1,4227.69,4305.64,4633.85,4407.18,1
375,4360,4001.54,4278.97,4111.28,4339.49,4622.56,4105.13,4627.18,4214.87,4234.36,4238.46,4316.41,4645.13,4416.41,1
376,4361.03,4003.59,4280,4117.44,4339.49,4618.46,4102.56,4625.64,4210.26,4234.87,4237.44,4314.36,4644.1,4410.77,1
377,4352.31,4004.1,4275.9,4116.92,4333.85,4625.64,4107.18,4625.13,4205.64,4227.69,4232.31,4305.64,4635.38,4402.56,1
378,4349.74,4003.59,4273.85,4108.21,4332.82,4630.77,4107.69,4627.69,4210.77,4229.23,4237.44,4306.67,4638.97,4407.69,1
379,4359.49,4006.67,4278.46,4115.38,4337.95,4630.77,4106.15,4632.82,4224.1,4238.46,4242.05,4317.44,4649.23,4420.51,1
380,4367.18,4012.82,4284.62,4126.67,4342.56,4631.28,4105.64,4636.92,4226.15,4242.56,4242.05,4323.59,4652.82,4422.56,1
381,4359.49,4009.23,4282.56,4121.03,4340,4630.77,4105.13,4634.87,4213.85,4231.79,4230.77,4315.9,4644.62,4410.26,1
382,4346.67,3995.38,4277.95,4112.31,4333.33,4627.69,4103.08,4628.72,4206.67,4218.46,4208.21,4306.15,4629.23,4399.49,1
383,4343.08,3991.79,4275.9,4114.87,4332.31,4623.08,4100.51,4622.56,4207.69,4218.46,4194.36,4303.59,4621.03,4395.9,1
384,4341.03,3997.44,4270.26,4120,4337.95,4624.1,4101.54,4626.67,4214.36,4227.18,4194.36,4301.03,4624.62,4390.77,1
385,4336.92,3993.33,4264.62,4112.82,4338.46,4632.82,4105.13,4636.41,4222.05,4233.33,4194.87,4300,4625.64,4386.67,1
386,4336.41,3985.13,4263.59,4102.56,4334.36,4635.38,4106.15,4632.31,4222.56,4231.28,4192.31,4302.56,4618.97,4388.21,1
387,4334.87,3986.15,4263.59,4103.59,4333.33,4631.79,4108.21,4631.28,4223.59,4231.28,4191.28,4301.54,4617.44,4391.28,1
388,4330.26,3991.79,4263.59,4108.21,4336.92,4633.85,4112.82,4641.03,4222.56,4234.87,4189.74,4303.08,4623.08,4389.74,1
389,4327.18,3988.72,4264.1,4105.64,4334.87,4633.33,4112.82,4638.46,4211.79,4230.26,4189.74,4306.67,4625.64,4386.67,1
390,4328.72,3982.05,4264.62,4103.59,4327.69,4624.62,4107.18,4626.15,4207.18,4219.49,4188.21,4303.59,4623.08,4386.15,1
391,4329.23,3984.62,4264.62,4105.64,4327.69,4621.03,4103.59,4629.74,4214.87,4220.51,4181.54,4298.97,4619.49,4386.15,1
392,4329.74,3986.67,4267.18,4106.67,4333.33,4625.13,4104.1,4640.51,4223.08,4229.23,4182.56,4302.56,4622.05,4387.18,1
393,4329.74,3983.08,4267.18,4106.15,4330.77,4624.62,4102.56,4638.46,4220.51,4226.15,4184.1,4302.05,4623.08,4387.69,1
394,4328.72,3983.59,4264.1,4104.62,4326.15,4618.46,4096.92,4628.72,4206.15,4217.95,4179.49,4294.87,4615.38,4384.1,1
395,4331.79,3989.74,4265.64,4108.21,4330.77,4616.92,4093.85,4621.54,4200.51,4216.92,4180.51,4297.44,4615.9,4386.67,1
396,4338.97,3992.82,4268.72,4115.9,4334.36,4617.44,4095.9,4619.49,4206.67,4224.1,4187.18,4304.62,4623.08,4389.74,1
397,4336.41,3988.72,4266.15,4112.82,4329.74,4616.41,4092.82,4618.97,4208.21,4227.18,4184.62,4302.05,4621.03,4382.05,1
398,4326.15,3985.13,4262.56,4104.62,4325.64,4616.41,4091.28,4622.05,4207.18,4222.56,4177.44,4294.87,4614.87,4375.9,1
399,4325.13,3987.69,4263.08,4107.69,4327.69,4616.41,4097.95,4626.67,4207.18,4216.92,4176.41,4292.31,4614.36,4378.46,1
400,4331.28,3990.77,4264.62,4112.82,4329.23,4614.36,4103.08,4627.18,4201.54,4214.36,4175.9,4293.33,4612.31,4379.49,1
401,4328.72,3989.23,4264.62,4108.21,4325.64,4616.92,4107.18,4627.69,4202.05,4211.79,4169.74,4293.33,4608.72,4374.87,1
402,4321.54,3984.1,4263.59,4104.62,4325.13,4624.62,4113.33,4632.31,4212.82,4210.26,4161.54,4293.33,4607.18,4371.79,1
403,4318.97,3983.59,4262.56,4107.18,4328.21,4622.56,4110.77,4640,4224.1,4222.05,4164.62,4295.38,4608.72,4376.41,1
404,4323.59,3987.69,4264.1,4107.69,4330.77,4617.44,4104.62,4644.62,4227.18,4233.33,4175.9,4300,4615.38,4385.13,1
405,4325.13,3985.13,4266.15,4107.69,4331.28,4624.62,4107.69,4637.95,4215.38,4227.69,4178.46,4302.56,4616.92,4381.03,1
406,4322.05,3978.46,4268.72,4107.69,4331.28,4628.72,4111.28,4626.15,4206.15,4216.41,4169.74,4297.44,4608.72,4371.28,1
407,4321.54,3980.51,4270.26,4109.74,4332.31,4622.56,4107.69,4623.59,4208.72,4213.33,4165.13,4294.87,4604.1,4375.38,1
408,4321.03,3987.69,4266.67,4113.85,4335.9,4624.1,4104.62,4623.08,4207.18,4215.9,4171.28,4298.46,4610.26,4382.05,1
409,4319.49,3988.21,4262.56,4113.33,4339.49,4627.69,4102.56,4624.1,4211.28,4220,4175.38,4300,4617.44,4379.49,1
410,4316.92,3983.08,4261.54,4107.18,4337.44,4621.03,4099.49,4630.77,4216.92,4224.62,4174.87,4297.95,4617.44,4375.9,1
411,4314.36,3983.59,4261.03,4105.64,4331.28,4615.38,4096.92,4629.74,4209.74,4220.51,4172.31,4297.44,4614.87,4374.36,1
412,4312.82,3983.08,4263.08,4105.64,4327.69,4616.41,4095.9,4624.62,4204.62,4212.82,4167.69,4296.41,4612.31,4371.28,1
413,4316.92,3978.46,4264.1,4103.08,4329.74,4616.41,4097.95,4626.15,4210.77,4212.82,4166.67,4293.33,4608.72,4371.28,1
414,4320,3980.51,4256.41,4101.03,4330.26,4623.08,4101.54,4632.31,4216.92,4221.54,4170.77,4291.28,4609.74,4372.82,1
415,4315.38,3984.62,4246.15,4095.9,4330.77,4630.77,4106.67,4638.46,4219.49,4227.69,4172.82,4289.23,4616.41,4373.85,1
416,4316.92,3981.03,4248.21,4093.85,4334.87,4626.15,4107.69,4640,4223.08,4227.18,4173.33,4289.74,4619.49,4377.44,1
417,4324.1,3979.49,4257.44,4096.92,4329.74,4615.38,4097.44,4631.79,4218.97,4225.64,4173.85,4291.79,4616.41,4377.44,1
418,4321.03,3978.46,4254.87,4091.79,4320,4608.21,4086.67,4622.05,4212.31,4221.03,4166.15,4287.69,4610.26,4370.26,1
419,4309.74,3975.9,4249.23,4087.18,4324.62,4608.21,4086.67,4621.03,4211.28,4221.03,4160.51,4283.08,4605.13,4364.62,1
420,4306.67,3981.54,4242.05,4090.77,4334.36,4613.85,4092.31,4625.13,4213.33,4225.64,4164.1,4282.56,4606.67,4364.1,1
421,4305.13,3983.08,4235.9,4088.21,4331.28,4616.92,4091.28,4628.21,4213.85,4225.64,4167.18,4283.08,4611.28,4366.67,1
422,4301.54,3972.31,4241.54,4083.08,4328.72,4616.92,4090.26,4630.77,4211.28,4223.59,4170.77,4285.64,4611.79,4369.23,1
423,4307.69,3969.23,4248.72,4088.72,4332.82,4619.49,4094.36,4632.31,4210.77,4223.59,4174.87,4292.31,4608.72,4370.26,1
424,4315.9,3977.95,4254.36,4092.31,4330.77,4620,4093.85,4629.23,4210.77,4223.59,4173.85,4297.95,4609.74,4376.41,1
425,4314.87,3981.03,4260.51,4090.77,4329.74,4615.38,4093.33,4631.28,4218.97,4226.67,4177.95,4303.08,4616.92,4382.05,1
426,4309.74,3978.97,4257.95,4090.77,4331.79,4620.51,4100.51,4644.62,4231.79,4235.9,4187.69,4305.64,4623.08,4376.92,1
427,4307.18,3981.54,4253.33,4091.79,4331.28,4625.13,4108.72,4651.79,4230.77,4240.51,4187.18,4304.62,4622.56,4372.31,1
428,4309.23,3984.62,4260.51,4091.79,4330.26,4620,4107.18,4645.64,4225.64,4240.51,4181.54,4302.56,4621.54,4376.92,1
429,4311.28,3977.95,4264.62,4087.69,4330.77,4618.97,4105.13,4641.54,4220,4234.87,4181.03,4301.54,4621.03,4381.03,1
430,4312.31,3972.82,4258.46,4085.64,4332.31,4623.59,4108.21,4642.05,4214.87,4227.69,4180.51,4302.05,4620,4381.03,1
431,4311.79,3976.41,4253.33,4090.26,4333.85,4619.49,4103.59,4635.9,4217.44,4229.74,4178.97,4302.05,4619.49,4375.9,1
432,4308.21,3979.49,4249.23,4091.28,4334.36,4612.82,4097.95,4628.72,4218.97,4232.31,4176.41,4294.36,4618.97,4370.77,1
433,4307.69,3978.97,4248.21,4089.23,4335.38,4614.87,4100,4627.18,4207.69,4228.72,4170.26,4286.15,4618.46,4371.28,1
434,4310.77,3976.92,4250.26,4090.26,4334.36,4616.92,4101.03,4626.67,4195.9,4218.97,4163.59,4288.72,4610.77,4368.72,1
435,4306.67,3974.87,4246.67,4090.77,4330.26,4613.85,4097.95,4624.62,4198.97,4210.26,4158.46,4288.72,4599.49,4358.46,1
436,4303.59,3981.03,4246.67,4090.26,4333.85,4612.82,4099.49,4627.18,4208.21,4213.85,4161.54,4289.23,4604.62,4364.62,1
437,4311.79,3989.23,4254.36,4091.28,4336.92,4618.97,4107.18,4633.33,4214.87,4228.72,4174.87,4295.9,4620.51,4378.97,1
438,4312.31,3983.08,4261.54,4090.77,4329.74,4623.59,4111.28,4639.49,4218.46,4233.85,4177.95,4298.97,4622.05,4375.9,1
439,4305.64,3975.38,4263.59,4090.26,4326.15,4621.03,4106.67,4641.03,4217.95,4225.13,4170.26,4295.38,4614.36,4366.67,1
440,4308.72,3981.03,4262.05,4091.28,4328.21,4617.95,4102.56,4636.41,4214.36,4225.13,4172.82,4293.85,4614.87,4371.79,1
441,4315.38,3987.69,4262.56,4089.74,4330.26,4618.97,4103.08,4636.41,4218.97,4235.9,4184.1,4298.97,4621.54,4385.64,1
442,4313.85,3987.69,4265.13,4090.26,4330.77,4621.54,4102.56,4643.59,4226.67,4241.54,4185.64,4305.13,4626.67,4386.15,1
443,4304.62,3984.62,4258.46,4090.26,4329.23,4621.03,4097.95,4642.56,4222.05,4233.85,4180,4301.03,4622.05,4372.31,1
444,4298.46,3979.49,4251.28,4084.62,4328.72,4618.97,4096.92,4634.36,4217.44,4227.69,4176.41,4292.31,4611.28,4364.62,1
445,4294.36,3972.82,4247.69,4080,4330.77,4614.87,4099.49,4629.74,4216.41,4229.23,4172.82,4290.77,4604.62,4359.49,1
446,4287.69,3970.77,4238.97,4077.44,4327.18,4608.72,4096.92,4625.13,4202.56,4222.56,4169.74,4288.72,4604.62,4354.87,1
447,4286.67,3969.23,4234.87,4073.85,4320,4604.1,4089.23,4621.54,4191.79,4208.72,4169.23,4285.13,4606.67,4361.54,1
448,4293.85,3968.21,4244.1,4074.87,4322.56,4606.67,4089.23,4622.56,4203.59,4209.23,4170.26,4288.21,4607.69,4369.23,1
449,4295.9,3973.33,4251.28,4080.51,4327.18,4611.28,4097.95,4624.62,4209.23,4219.49,4169.23,4288.72,4605.13,4361.54,1
450,4291.28,3975.9,4247.69,4081.03,4324.62,4611.79,4101.54,4625.64,4202.56,4215.9,4163.08,4285.13,4598.97,4355.9,1
451,4292.31,3973.33,4245.64,4080.51,4324.62,4614.87,4098.46,4627.18,4210.26,4213.85,4165.13,4287.69,4602.05,4366.67,1
452,4301.54,3976.92,4251.28,4086.15,4329.23,4617.95,4099.49,4628.72,4222.56,4226.15,4176.41,4294.36,4613.33,4373.33,1
453,4306.15,3983.59,4256.92,4088.72,4329.23,4616.92,4103.08,4633.33,4220,4233.85,4182.56,4298.46,4620,4371.28,1
454,4303.59,3983.08,4259.49,4089.74,4327.18,4616.41,4102.05,4634.87,4215.9,4232.31,4182.05,4301.54,4622.05,4373.33,1
455,4305.64,3985.64,4260.51,4092.31,4328.72,4615.9,4102.56,4630.77,4218.46,4230.77,4183.08,4304.1,4624.1,4377.95,1
456,4307.18,3986.15,4256.92,4086.15,4329.74,4617.44,4105.13,4631.79,4217.44,4232.82,4184.62,4304.62,4623.59,4375.38,1
457,4299.49,3979.49,4249.23,4080.51,4328.72,4617.95,4103.59,4637.95,4217.44,4235.38,4183.59,4301.03,4624.1,4371.79,1
458,4295.9,3977.95,4247.69,4087.69,4326.67,4616.92,4101.03,4632.82,4213.85,4233.33,4180.51,4292.82,4623.59,4369.23,1
459,4300,3979.49,4250.26,4089.23,4327.69,4615.38,4095.9,4618.46,4199.49,4223.08,4175.9,4286.15,4614.36,4363.08,1
460,4294.87,3975.9,4247.18,4082.56,4330.77,4615.38,4089.23,4616.92,4200.51,4214.87,4171.28,4286.67,4606.67,4358.97,1
461,4291.28,3973.85,4246.67,4087.18,4333.85,4613.85,4089.74,4627.18,4211.28,4216.41,4171.79,4288.72,4608.72,4364.1,1
462,4295.9,3977.44,4251.28,4092.82,4333.33,4612.31,4096.92,4625.13,4202.56,4218.46,4169.23,4286.67,4611.79,4368.21,1
463,4298.46,3982.05,4249.74,4090.26,4331.79,4611.79,4097.95,4617.44,4194.36,4218.46,4164.62,4283.08,4609.74,4361.54,1
464,4298.97,3989.74,4246.67,4092.31,4333.33,4610.26,4091.28,4624.1,4206.15,4218.46,4165.64,4277.44,4608.21,4354.36,1
465,4295.9,3989.23,4250.26,4094.87,4334.87,4614.87,4088.21,4632.31,4214.87,4223.59,4172.82,4274.36,4612.31,4357.95,1
466,4295.38,3985.64,4252.82,4091.28,4334.87,4618.97,4092.82,4630.26,4214.87,4232.82,4177.95,4284.62,4622.05,4368.21,1
467,4300.51,3990.77,4251.79,4093.33,4330.26,4609.23,4096.41,4624.1,4210.26,4229.23,4181.54,4298.46,4625.13,4369.23,1
468,4299.49,3990.26,4255.9,4097.44,4324.62,4601.03,4093.33,4617.44,4197.44,4214.87,4180.51,4297.44,4616.41,4360,1
469,4294.87,3985.64,4262.05,4096.41,4326.67,4607.18,4089.74,4611.79,4197.44,4213.33,4172.31,4289.23,4612.82,4359.49,1
470,4297.95,3988.72,4261.54,4094.87,4333.85,4614.87,4092.31,4614.36,4206.15,4218.97,4172.31,4289.23,4615.9,4366.67,1
471,4301.03,3989.74,4254.87,4093.33,4333.85,4613.85,4094.87,4613.33,4197.95,4216.41,4176.41,4289.74,4615.9,4366.15,1
472,4297.95,3984.62,4251.79,4092.82,4332.82,4613.33,4094.36,4610.77,4196.41,4214.36,4170.77,4291.79,4615.9,4363.08,1
473,4302.56,3988.21,4258.97,4099.49,4340.51,4617.95,4099.49,4617.95,4210.26,4223.08,4171.79,4298.97,4621.54,4370.26,1
474,4309.23,3995.9,4266.15,4105.64,4344.62,4620.51,4101.54,4624.62,4211.79,4230.26,4182.05,4298.97,4625.13,4373.85,1
475,4304.1,3994.87,4265.13,4102.05,4341.54,4618.97,4094.36,4621.54,4202.05,4224.62,4176.41,4289.74,4620,4363.08,1
476,4293.33,3986.15,4260,4092.31,4337.44,4617.44,4092.82,4621.03,4201.03,4214.36,4164.62,4287.18,4610.77,4355.38,1
477,4289.74,3976.92,4258.97,4089.74,4330.26,4615.38,4097.95,4626.15,4211.79,4215.38,4167.69,4294.87,4605.13,4357.44,1
478,4297.44,3983.59,4262.56,4098.97,4330.77,4614.36,4100.51,4625.13,4223.59,4229.74,4177.44,4300.51,4609.74,4363.08,1
479,4307.18,4003.08,4269.23,4111.28,4343.59,4622.56,4101.54,4623.59,4225.13,4237.44,4183.08,4298.97,4621.54,4368.21,1
480,4302.56,4003.08,4268.21,4110.26,4347.18,4631.79,4104.1,4627.18,4220.51,4234.36,4183.08,4293.33,4626.15,4366.67,1
481,4290.77,3986.67,4260,4097.95,4335.9,4627.18,4103.59,4621.54,4208.21,4229.23,4178.46,4290.26,4617.44,4358.97,1
482,4291.28,3985.64,4258.97,4097.95,4334.36,4618.97,4101.03,4609.74,4193.85,4223.08,4179.49,4295.38,4616.41,4360.51,1
483,4298.46,3993.85,4265.13,4107.69,4337.95,4616.41,4098.46,4608.72,4193.85,4219.49,4186.15,4296.92,4624.1,4365.13,1
484,4292.82,3989.74,4261.03,4105.13,4330.77,4612.82,4096.92,4613.33,4198.97,4215.38,4180,4289.74,4618.97,4353.33,1
485,4283.59,3983.08,4252.31,4098.46,4328.21,4610.77,4095.9,4613.85,4197.44,4205.64,4163.59,4280,4603.59,4344.1,1
486,4285.64,3986.15,4256.41,4100.51,4334.36,4615.38,4099.49,4620,4201.03,4201.54,4160.51,4275.9,4598.97,4346.67,1
487,4288.21,3988.72,4261.03,4100.51,4336.92,4620,4105.13,4628.21,4208.72,4208.21,4168.21,4279.49,4603.08,4346.67,1
488,4286.15,3991.28,4250.26,4098.46,4334.87,4617.44,4104.62,4623.59,4210.26,4217.95,4174.36,4280.51,4609.74,4346.15,1
489,4288.72,3997.95,4248.72,4105.13,4338.46,4613.33,4098.46,4617.95,4210.77,4225.13,4176.92,4282.05,4616.41,4351.79,1
490,4296.92,4001.54,4261.54,4109.74,4341.03,4611.28,4094.36,4620,4210.77,4227.18,4177.44,4284.62,4616.92,4352.82,1
491,4301.54,4003.59,4265.13,4108.21,4339.49,4611.28,4096.41,4621.54,4206.67,4223.08,4176.41,4287.69,4618.97,4353.33,1
492,4301.54,4003.59,4264.1,4107.18,4340.51,4615.9,4095.9,4618.97,4201.54,4220.51,4184.1,4294.36,4625.13,4365.64,1
493,4299.49,3997.95,4264.62,4104.62,4341.03,4617.95,4088.21,4617.95,4203.59,4218.97,4191.28,4298.97,4626.15,4368.21,1
494,4291.79,3993.33,4254.36,4102.56,4338.97,4616.92,4087.69,4622.56,4211.79,4215.9,4181.03,4288.72,4620,4352.31,1
495,4286.15,3994.36,4246.15,4104.62,4336.92,4623.59,4100.51,4628.72,4211.79,4215.38,4167.69,4273.33,4608.72,4342.56,1
496,4285.13,3994.87,4253.85,4105.13,4336.41,4626.67,4106.15,4628.72,4210.77,4217.95,4169.74,4274.36,4601.54,4346.67,1
497,4285.13,3993.85,4263.08,4105.13,4338.46,4618.97,4101.03,4630.77,4226.15,4226.67,4179.49,4284.1,4609.23,4352.31,1
498,4288.21,3998.97,4262.05,4107.18,4344.1,4617.44,4100,4637.95,4232.82,4235.9,4185.13,4292.31,4619.49,4353.85,1
499,4293.33,4000.51,4263.08,4105.64,4345.64,4624.1,4101.54,4633.33,4211.28,4232.31,4185.64,4295.9,4620,4354.87,1
500,4291.28,3996.41,4263.08,4105.13,4342.05,4625.13,4098.97,4623.59,4200.51,4222.56,4182.56,4292.82,4615.38,4353.85,1
501,4283.08,3995.38,4255.9,4109.23,4346.15,4626.67,4098.97,4630.77,4217.95,4221.54,4175.9,4283.59,4610.26,4345.13,1
502,4274.36,3994.87,4244.1,4106.15,4344.62,4632.31,4103.59,4636.41,4221.54,4216.92,4165.13,4269.74,4600.51,4328.21,1
503,4270.77,3990.77,4236.41,4094.36,4334.87,4626.15,4099.49,4621.54,4201.03,4206.67,4160,4263.59,4594.36,4322.56,1
504,4276.92,3988.72,4240,4090.26,4332.31,4616.41,4094.87,4615.38,4200,4214.36,4171.28,4273.33,4601.03,4338.46,1
505,4291.28,3996.92,4254.36,4096.92,4337.95,4617.95,4101.54,4629.23,4219.49,4228.21,4189.23,4291.79,4617.44,4357.95,1
506,4301.03,4005.13,4266.67,4105.64,4341.03,4622.05,4104.1,4636.41,4224.62,4231.79,4195.38,4298.46,4626.67,4361.54,1
507,4297.95,4003.59,4262.56,4104.1,4338.97,4618.46,4099.49,4631.79,4219.49,4229.23,4191.79,4293.85,4623.08,4356.92,1
508,4290.26,3996.41,4252.31,4097.44,4336.92,4615.38,4097.95,4626.67,4215.9,4227.18,4187.18,4286.15,4620.51,4352.31,1
509,4285.64,3991.79,4246.67,4091.28,4335.38,4618.97,4102.05,4627.18,4215.38,4223.08,4181.54,4277.95,4614.87,4344.1,1
510,4283.59,3989.23,4240.51,4084.62,4334.87,4624.1,4104.1,4631.28,4217.95,4221.54,4178.97,4273.85,4608.72,4341.54,1
511,4281.03,3987.69,4232.82,4083.59,4335.38,4624.62,4100,4630.77,4212.31,4223.08,4182.05,4276.92,4614.87,4347.69,1
512,4279.49,3991.28,4232.82,4087.18,4335.9,4618.97,4097.95,4625.13,4201.54,4221.03,4182.56,4280.51,4619.49,4346.67,1
513,4280.51,3991.79,4241.03,4085.13,4333.85,4615.38,4096.41,4620.51,4201.03,4217.44,4178.97,4280.51,4613.85,4342.05,1
514,4286.15,3991.79,4247.69,4083.59,4332.82,4615.38,4091.28,4620.51,4212.31,4217.95,4184.1,4281.54,4614.87,4348.72,1
515,4290.77,4000.51,4248.72,4092.31,4338.97,4615.38,4090.77,4631.28,4229.23,4230.77,4194.87,4284.1,4624.62,4357.95,1
516,4288.21,4006.67,4245.13,4091.79,4343.08,4620,4098.46,4641.03,4233.85,4241.54,4197.44,4283.59,4625.64,4350.26,1
517,4284.1,4001.03,4246.15,4084.1,4339.49,4624.1,4106.15,4636.41,4217.44,4233.33,4192.82,4280.51,4621.54,4338.97,1
518,4278.97,3995.38,4246.15,4084.1,4334.36,4619.49,4103.59,4624.1,4197.44,4217.44,4185.13,4276.41,4615.9,4334.36,1
519,4264.1,3985.64,4235.38,4078.46,4326.67,4612.82,4101.03,4621.03,4192.82,4208.21,4175.9,4272.31,4603.59,4327.69,1
520,4256.41,3975.9,4225.64,4069.74,4326.67,4612.82,4100.51,4618.97,4197.95,4208.72,4171.79,4270.26,4597.95,4327.69,1
521,4270.26,3985.13,4234.87,4078.46,4336.92,4617.44,4100.51,4616.41,4204.1,4216.41,4177.95,4276.41,4606.67,4340,1
522,4281.54,3998.97,4250.26,4092.31,4344.1,4621.54,4105.64,4624.1,4212.31,4224.62,4185.64,4284.1,4613.33,4342.56,1
523,4280,3998.46,4252.31,4092.82,4342.05,4621.54,4109.23,4631.28,4217.95,4225.64,4187.69,4278.46,4612.82,4336.41,1
524,4280,3997.95,4248.72,4090.26,4341.03,4622.05,4106.15,4627.18,4216.92,4224.62,4183.08,4271.28,4617.44,4341.54,1
525,4282.56,4002.05,4247.18,4091.28,4341.03,4624.62,4106.15,4630.26,4216.41,4229.23,4182.56,4280.51,4623.08,4349.23,1
526,4282.05,4003.08,4246.15,4091.79,4340.51,4624.1,4110.77,4636.92,4219.49,4234.87,4191.28,4287.18,4623.59,4348.72,1
527,4279.49,4001.54,4244.1,4091.79,4341.03,4622.56,4106.15,4632.31,4217.44,4235.38,4191.28,4276.92,4620.51,4340,1
528,4275.9,3998.46,4245.13,4090.77,4341.54,4622.05,4101.54,4626.67,4208.72,4227.18,4185.64,4270.77,4617.95,4334.87,1
529,4277.44,3998.46,4247.69,4091.79,4343.08,4618.46,4103.59,4625.64,4208.72,4223.59,4191.28,4277.95,4620.51,4342.56,1
530,4281.54,4003.59,4248.72,4096.92,4343.59,4615.9,4103.08,4621.03,4212.31,4227.18,4193.85,4284.1,4620.51,4349.74,1
531,4274.36,3997.44,4247.69,4094.87,4338.46,4618.46,4101.03,4620,4207.69,4225.13,4181.54,4280.51,4613.33,4340.51,1
532,4269.23,3989.23,4245.64,4088.72,4332.31,4618.46,4105.64,4626.67,4205.64,4218.46,4177.95,4276.41,4610.26,4333.85,1
533,4278.46,4001.03,4247.18,4089.74,4332.82,4615.38,4106.15,4627.18,4212.31,4220,4187.69,4281.03,4615.9,4342.56,1
534,4283.08,4010.77,4247.69,4091.79,4336.41,4613.33,4100.51,4625.64,4217.95,4228.21,4191.79,4281.54,4616.92,4340.51,1
535,4275.38,4002.05,4241.54,4088.72,4335.9,4614.87,4101.03,4630.26,4214.36,4227.69,4187.18,4271.28,4610.77,4330.26,1
536,4274.87,3997.95,4238.46,4089.74,4335.38,4618.46,4105.64,4634.87,4215.9,4227.18,4188.21,4272.82,4612.31,4335.38,1
537,4276.41,4002.56,4236.92,4091.79,4334.87,4622.56,4108.21,4634.36,4223.08,4232.31,4191.79,4281.03,4618.46,4339.49,1
538,4268.21,4002.56,4232.82,4085.13,4336.41,4622.56,4107.18,4629.23,4221.03,4230.77,4189.74,4277.44,4617.95,4331.28,1
539,4271.28,4005.64,4236.41,4085.64,4343.08,4620.51,4105.64,4626.67,4216.41,4227.18,4190.77,4274.87,4617.44,4333.85,1
540,4286.67,4015.38,4248.72,4101.03,4348.72,4621.03,4108.21,4630.26,4220,4232.31,4197.95,4281.54,4623.59,4345.64,1
541,4292.82,4016.92,4251.79,4108.72,4347.69,4619.49,4110.77,4633.85,4219.49,4238.46,4201.03,4286.67,4626.67,4345.13,1
542,4281.03,4007.69,4249.23,4098.46,4343.08,4617.95,4107.18,4633.33,4217.44,4232.82,4196.41,4281.54,4618.46,4335.9,1
543,4269.23,3997.95,4245.13,4084.1,4338.97,4619.49,4107.18,4634.87,4224.1,4229.74,4197.44,4273.33,4615.38,4333.85,1
544,4269.74,3996.92,4238.46,4081.54,4338.97,4622.56,4114.36,4638.46,4230.77,4234.87,4198.46,4272.82,4620.51,4336.92,1
545,4274.36,4004.1,4236.92,4085.64,4343.59,4627.18,4118.97,4632.82,4224.1,4237.44,4195.38,4274.36,4620.51,4335.9,1
546,4277.95,4014.36,4243.08,4092.82,4347.69,4630.26,4115.38,4624.62,4214.87,4235.9,4198.97,4274.36,4617.95,4337.44,1
547,4283.08,4020,4251.79,4101.54,4344.62,4627.18,4107.18,4624.1,4213.33,4231.79,4202.05,4281.54,4620.51,4345.64,1
548,4285.64,4014.36,4256.92,4101.03,4341.54,4624.1,4106.15,4627.18,4210.26,4227.18,4198.46,4288.72,4622.56,4350.26,1
549,4282.05,4010.26,4252.82,4094.36,4343.59,4628.21,4113.33,4631.28,4213.33,4231.79,4204.62,4289.74,4625.13,4348.72,1
550,4283.59,4017.44,4252.31,4097.95,4349.23,4628.21,4114.36,4633.85,4220.51,4242.56,4213.85,4292.82,4628.21,4350.26,1
551,4292.82,4027.18,4258.97,4109.74,4353.85,4627.69,4106.67,4632.82,4224.1,4242.05,4212.31,4292.82,4627.18,4352.31,1
552,4287.69,4024.1,4261.03,4109.74,4352.82,4630.77,4107.69,4635.38,4229.74,4237.95,4211.28,4287.69,4625.13,4347.69,1
553,4275.9,4014.36,4258.46,4103.08,4348.72,4631.79,4117.44,4643.08,4231.79,4240,4211.79,4289.74,4619.49,4343.59,1
554,4277.95,4014.36,4262.05,4104.1,4348.72,4632.82,4118.97,4643.59,4224.62,4244.62,4211.28,4296.92,4621.03,4348.72,1
555,4291.28,4022.56,4266.67,4107.18,4350.77,4631.28,4113.33,4640,4223.59,4249.23,4218.97,4297.95,4632.31,4356.41,1
556,4291.28,4026.15,4266.67,4105.13,4348.21,4628.21,4111.28,4643.08,4232.31,4248.21,4221.03,4297.44,4632.82,4354.36,1
557,4285.64,4021.03,4264.62,4102.56,4349.23,4628.21,4114.36,4641.03,4229.74,4243.59,4209.74,4296.41,4621.54,4348.72,1
558,4288.21,4017.95,4264.1,4106.67,4353.33,4632.82,4115.9,4631.79,4222.56,4240,4209.23,4295.38,4620,4349.23,1
559,4288.21,4020,4265.13,4109.23,4352.31,4634.87,4114.36,4630.26,4225.64,4240.51,4219.49,4294.87,4624.62,4350.26,1
560,4287.18,4020.51,4264.62,4107.18,4347.18,4629.23,4115.38,4633.33,4220.51,4238.97,4217.95,4295.38,4623.59,4350.77,1
561,4288.21,4016.92,4263.59,4105.64,4344.62,4619.49,4111.79,4628.72,4208.21,4233.33,4210.77,4295.9,4622.05,4354.87,1
562,4285.64,4014.87,4264.62,4104.1,4344.1,4614.36,4102.05,4617.95,4201.54,4228.21,4210.26,4293.33,4619.49,4351.79,1
563,4276.41,4013.33,4262.56,4096.92,4341.54,4617.44,4101.03,4614.36,4199.49,4224.1,4207.69,4287.69,4612.82,4341.54,1
564,4271.28,4010.26,4254.36,4092.82,4341.54,4624.62,4105.64,4622.05,4207.18,4221.54,4202.05,4283.08,4607.18,4338.46,1
565,4270.77,4012.31,4248.21,4097.44,4344.1,4625.64,4104.1,4634.36,4220.51,4223.59,4202.56,4283.59,4608.72,4338.97,1
566,4269.23,4013.33,4249.23,4097.95,4344.62,4621.03,4102.05,4637.44,4221.03,4231.79,4205.13,4284.1,4612.31,4334.87,1
567,4267.69,4011.79,4248.21,4093.85,4344.1,4620,4103.59,4629.74,4211.79,4233.33,4204.1,4280.51,4610.77,4339.49,1
568,4271.79,4017.95,4249.74,4098.97,4347.69,4624.1,4107.18,4626.15,4208.21,4228.21,4209.23,4282.05,4617.44,4348.72,1
569,4281.03,4026.67,4258.97,4107.18,4348.72,4626.67,4112.31,4632.82,4210.77,4232.82,4214.36,4289.23,4626.67,4347.18,1
570,4284.1,4025.64,4266.15,4108.21,4344.62,4625.13,4112.82,4636.92,4212.31,4235.38,4212.82,4293.33,4621.54,4344.1,1
571,4280.51,4022.56,4262.56,4108.21,4343.59,4620,4103.59,4628.21,4207.69,4228.72,4212.31,4287.69,4613.85,4343.59,1
572,4277.44,4023.08,4255.9,4108.21,4343.08,4613.33,4093.85,4617.44,4207.18,4228.21,4208.72,4278.97,4614.87,4338.97,1
573,4277.95,4023.59,4256.41,4105.13,4341.03,4610.26,4091.79,4616.41,4209.74,4231.79,4204.1,4280,4612.82,4337.44,1
574,4281.03,4023.59,4262.56,4106.15,4344.62,4614.36,4098.46,4622.56,4210.77,4228.21,4206.67,4287.69,4609.23,4344.62,1
575,4284.62,4023.59,4270.26,4108.21,4347.69,4622.56,4107.69,4631.79,4217.95,4227.69,4213.85,4294.87,4612.82,4349.23,1
576,4281.03,4019.49,4269.74,4108.21,4343.08,4628.21,4112.82,4637.44,4222.05,4231.79,4212.82,4296.92,4613.85,4344.1,1
577,4274.87,4011.79,4264.62,4107.69,4338.46,4628.72,4114.36,4633.33,4209.74,4225.64,4206.67,4291.28,4608.72,4338.97,1
578,4271.79,4007.69,4262.56,4101.54,4335.9,4630.26,4116.92,4626.67,4196.41,4215.9,4203.08,4284.62,4601.54,4338.46,1
579,4268.21,4009.23,4259.49,4097.95,4335.38,4632.31,4115.38,4626.15,4201.54,4217.95,4204.62,4285.64,4600.51,4336.92,1
580,4265.13,4010.77,4255.9,4102.56,4341.03,4632.31,4110.26,4627.69,4206.15,4224.1,4208.72,4289.23,4610.77,4335.38,1
581,4270.77,4017.44,4258.97,4106.15,4347.69,4628.72,4109.74,4625.64,4206.15,4224.1,4209.74,4286.15,4617.95,4342.05,1
582,4282.56,4029.74,4265.13,4109.23,4350.77,4622.56,4109.23,4627.69,4222.05,4236.41,4214.36,4286.15,4620,4351.79,1
583,4287.69,4034.36,4264.1,4119.49,4356.41,4622.05,4109.74,4638.97,4235.9,4250.77,4221.54,4291.28,4624.1,4351.28,1
584,4283.08,4028.72,4262.56,4122.05,4357.95,4628.72,4117.44,4642.56,4223.08,4244.1,4225.13,4290.26,4626.15,4347.18,1
585,4280.51,4026.15,4264.62,4113.33,4350.26,4630.26,4116.92,4628.21,4205.13,4230.77,4221.03,4289.74,4620,4347.69,1
586,4282.56,4025.64,4263.59,4111.79,4346.15,4626.15,4108.21,4616.41,4206.67,4229.23,4214.87,4293.85,4616.92,4350.77,1
587,4284.62,4025.64,4263.59,4118.97,4352.31,4629.23,4107.18,4617.44,4206.67,4230.26,4214.87,4293.33,4623.59,4354.36,1
588,4284.1,4027.69,4264.62,4121.54,4351.28,4634.36,4113.85,4618.97,4200,4224.62,4214.87,4286.67,4621.54,4349.23,1
589,4281.03,4023.59,4262.05,4116.41,4344.62,4626.67,4114.87,4622.56,4205.13,4217.95,4210.26,4283.59,4607.69,4341.54,1
590,4283.08,4024.1,4266.15,4115.38,4349.74,4618.46,4109.74,4627.69,4215.38,4222.05,4211.79,4288.72,4607.18,4348.21,1
591,4289.74,4034.36,4273.33,4121.54,4353.33,4621.03,4108.21,4627.69,4212.82,4229.23,4218.97,4295.9,4620.51,4360,1
592,4291.28,4034.36,4272.82,4124.62,4347.18,4623.08,4108.72,4624.62,4208.72,4227.18,4221.03,4301.03,4623.08,4360,1
593,4292.31,4028.21,4274.36,4122.56,4345.64,4621.03,4106.15,4624.1,4212.31,4230.26,4220,4300,4620,4357.95,1
594,4293.85,4030.77,4278.46,4122.05,4350.77,4622.05,4104.62,4624.62,4212.82,4237.95,4223.59,4299.49,4623.59,4358.97,1
595,4288.72,4030.26,4273.33,4122.56,4348.21,4624.62,4105.64,4620.51,4203.08,4230.77,4223.08,4299.49,4623.59,4353.85,1
596,4282.05,4022.56,4261.54,4120,4347.18,4626.67,4105.64,4614.87,4194.87,4219.49,4214.87,4290.26,4616.92,4345.64,1
597,4282.56,4022.56,4254.36,4117.95,4352.31,4630.26,4105.13,4616.92,4201.03,4222.05,4208.21,4281.54,4612.31,4341.03,1
598,4286.67,4027.69,4255.9,4116.92,4349.74,4628.21,4107.69,4625.64,4213.85,4228.21,4211.79,4280,4611.79,4342.05,1
599,4287.69,4027.69,4259.49,4112.82,4345.64,4621.03,4109.23,4627.18,4214.36,4230.77,4218.97,4284.62,4615.38,4347.69,1
600,4285.13,4025.64,4259.49,4109.74,4346.15,4621.54,4112.31,4625.64,4209.74,4231.79,4221.03,4293.33,4620.51,4352.82,1
601,4286.15,4027.18,4261.03,4110.77,4348.21,4628.72,4120,4628.21,4214.36,4233.33,4220.51,4297.95,4620,4353.85,1
602,4290.26,4030.77,4258.46,4111.79,4348.72,4629.74,4117.44,4622.56,4214.87,4235.38,4218.97,4290.26,4620,4349.23,1
603,4285.64,4028.21,4247.18,4108.72,4350.77,4620.51,4097.95,4608.21,4200.51,4231.28,4211.28,4275.38,4617.44,4342.05,1
604,4278.97,4024.62,4241.03,4105.13,4352.31,4616.41,4089.23,4605.64,4198.46,4224.1,4206.15,4270.26,4610.77,4340,1
605,4283.59,4026.67,4247.69,4105.64,4349.74,4617.95,4097.44,4618.97,4215.38,4223.59,4213.85,4279.49,4611.28,4346.67,1
606,4288.21,4026.15,4249.74,4106.15,4346.15,4615.38,4097.44,4624.1,4216.92,4227.18,4220,4285.64,4617.95,4350.77,1
607,4283.08,4022.05,4246.15,4104.1,4344.62,4614.36,4093.33,4612.31,4200,4223.59,4211.79,4277.44,4615.38,4345.13,1
608,4283.59,4024.1,4247.18,4105.64,4345.64,4617.95,4101.03,4606.67,4202.56,4222.05,4209.74,4271.79,4611.28,4342.56,1
609,4289.74,4026.67,4248.72,4108.21,4345.64,4617.95,4105.13,4612.82,4216.92,4230.77,4217.95,4278.46,4615.9,4345.64,1
610,4287.69,4023.08,4248.21,4106.15,4349.23,4615.38,4102.05,4614.36,4208.72,4229.74,4221.54,4285.64,4619.49,4351.28,1
611,4287.69,4024.62,4252.31,4106.15,4351.28,4618.46,4106.15,4614.87,4201.03,4222.56,4224.1,4289.23,4622.56,4357.95,1
612,4294.36,4025.64,4256.41,4104.62,4347.18,4621.03,4110.77,4626.15,4222.05,4230.77,4229.23,4292.82,4625.13,4360,1
613,4286.67,4012.82,4250.26,4093.33,4342.56,4617.95,4106.15,4629.23,4231.79,4241.54,4225.64,4287.69,4616.92,4348.72,1
614,4277.95,4009.23,4245.13,4092.82,4345.13,4616.41,4102.56,4618.46,4212.82,4233.33,4211.28,4275.9,4605.13,4340.51,1
615,4291.79,4027.69,4249.23,4105.64,4350.26,4617.44,4102.56,4616.41,4204.1,4222.56,4205.64,4274.36,4606.67,4352.31,1
616,4305.13,4035.9,4250.77,4106.67,4345.13,4620,4103.59,4618.46,4210.77,4223.59,4211.28,4282.05,4613.85,4364.1,1
617,4308.72,4028.21,4253.33,4098.97,4339.49,4624.1,4108.72,4619.49,4212.31,4229.23,4216.41,4286.15,4620.51,4370.77,1
618,4324.1,4036.92,4261.03,4104.1,4346.67,4626.15,4112.82,4624.1,4217.95,4233.85,4225.13,4290.77,4633.85,4382.05,1
619,4335.38,4051.79,4265.64,4112.31,4352.82,4627.69,4111.79,4630.26,4227.69,4233.85,4229.74,4295.9,4638.97,4390.77,1
620,4330.26,4047.18,4264.62,4110.77,4350.77,4631.79,4110.26,4628.21,4221.03,4228.21,4223.59,4293.33,4630.77,4389.23,1
621,4328.72,4042.56,4264.1,4108.72,4350.26,4629.74,4108.21,4620.51,4209.74,4223.08,4222.05,4294.36,4628.72,4387.18,1
622,4332.82,4046.67,4265.13,4111.28,4348.72,4621.03,4105.64,4616.41,4210.77,4227.69,4227.69,4299.49,4632.31,4386.67,1
623,4326.67,4043.59,4264.1,4109.74,4342.05,4618.46,4104.62,4614.87,4213.85,4234.87,4228.72,4292.31,4632.82,4382.05,1
624,4317.44,4036.41,4260.51,4104.1,4341.03,4619.49,4105.13,4617.95,4210.77,4233.85,4225.13,4285.13,4634.87,4381.03,1
625,4317.44,4039.49,4258.97,4105.13,4345.13,4617.95,4104.1,4624.62,4212.31,4229.23,4225.64,4287.18,4634.36,4381.54,1
626,4322.56,4044.62,4262.56,4110.77,4344.62,4623.08,4103.59,4628.21,4215.38,4229.74,4221.54,4290.26,4626.67,4381.03,1
627,4324.62,4042.05,4265.64,4110.26,4344.1,4632.31,4110.26,4626.15,4213.85,4228.21,4216.41,4291.79,4622.56,4380.51,1
628,4323.08,4038.97,4263.08,4105.64,4346.15,4631.28,4113.33,4620.51,4211.28,4221.03,4218.46,4294.87,4624.1,4383.08,1
629,4318.97,4035.38,4258.46,4101.54,4344.62,4625.64,4107.69,4622.05,4215.9,4224.62,4223.59,4293.85,4624.62,4381.54,1
630,4316.92,4032.31,4259.49,4101.54,4345.64,4629.74,4104.62,4631.28,4231.79,4240,4225.13,4290.26,4626.67,4380.51,1
631,4324.62,4041.03,4265.13,4109.23,4350.77,4631.79,4105.64,4633.85,4238.46,4247.69,4228.21,4295.9,4631.28,4389.23,1
632,4330.26,4047.69,4265.64,4112.82,4349.74,4625.13,4106.15,4626.67,4224.62,4244.62,4232.31,4299.49,4635.38,4394.87,1
633,4326.67,4045.13,4263.08,4107.69,4344.62,4622.05,4103.59,4619.49,4212.82,4240,4230.77,4295.9,4636.41,4389.74,1
634,4326.15,4043.59,4267.18,4108.72,4345.13,4626.15,4103.59,4615.38,4211.79,4234.87,4225.13,4292.31,4632.82,4385.13,1
635,4329.23,4042.56,4269.23,4110.26,4346.15,4631.79,4109.74,4616.41,4213.85,4227.69,4220.51,4288.21,4627.69,4383.59,1
636,4326.67,4040,4269.23,4110.77,4348.72,4633.33,4116.41,4623.08,4212.31,4225.64,4218.46,4286.67,4623.59,4381.03,1
637,4326.67,4047.69,4270.77,4114.87,4353.85,4631.79,4113.33,4627.18,4212.82,4228.21,4219.49,4292.31,4622.56,4382.05,1
638,4331.28,4051.28,4269.23,4114.36,4352.31,4630.77,4105.13,4627.69,4213.33,4226.67,4222.05,4295.38,4622.56,4384.62,1
639,4328.72,4044.62,4264.1,4109.74,4346.67,4630.77,4105.64,4628.72,4213.85,4222.05,4222.56,4290.77,4622.56,4382.56,1
640,4325.13,4045.13,4263.59,4111.79,4345.13,4629.23,4109.74,4628.72,4216.92,4225.13,4219.49,4291.28,4623.59,4381.54,1
641,4329.23,4049.74,4265.64,4117.95,4343.59,4628.72,4106.15,4623.59,4220.51,4233.85,4221.54,4296.41,4628.21,4384.62,1
642,4331.79,4051.28,4263.08,4117.44,4346.15,4629.23,4100,4622.05,4218.46,4237.44,4229.74,4297.44,4635.9,4391.28,1
643,4331.79,4053.33,4263.59,4116.92,4349.23,4630.26,4106.67,4627.18,4219.49,4243.59,4236.41,4301.03,4640.51,4394.36,1
644,4331.28,4051.79,4267.69,4115.38,4344.1,4633.33,4117.95,4630.77,4225.64,4250.26,4233.33,4300,4638.46,4386.67,1
645,4326.15,4047.69,4265.64,4112.31,4341.03,4633.85,4117.44,4628.72,4220.51,4243.59,4226.15,4293.85,4631.28,4379.49,1
646,4326.15,4049.74,4266.15,4115.9,4342.56,4633.33,4113.33,4629.23,4215.38,4232.82,4224.62,4295.38,4629.23,4383.59,1
647,4331.79,4054.36,4271.79,4122.05,4345.64,4634.87,4117.44,4630.26,4224.1,4237.44,4228.72,4299.49,4634.36,4388.72,1
648,4329.74,4057.44,4271.28,4124.1,4361.03,4641.03,4120,4633.85,4233.33,4246.67,4234.87,4297.95,4639.49,4387.69,1
649,4327.69,4061.54,4269.74,4124.62,4378.46,4648.21,4121.54,4643.08,4240,4249.74,4237.95,4300.51,4642.05,4391.79,1
650,4337.44,4064.1,4278.46,4127.18,4369.74,4646.15,4127.18,4648.21,4244.62,4255.9,4241.03,4309.74,4646.15,4402.05,1
651,4339.49,4059.49,4283.59,4127.18,4351.28,4636.92,4127.69,4639.49,4230.26,4254.87,4241.54,4312.31,4644.62,4401.54,1
652,4330.26,4051.28,4275.38,4120.51,4346.67,4630.77,4121.54,4626.15,4210.26,4241.54,4233.33,4307.18,4632.82,4387.18,1
653,4328.21,4050.77,4275.9,4120.51,4348.21,4630.26,4115.9,4623.59,4215.9,4237.44,4229.23,4301.03,4631.79,4382.56,1
654,4333.33,4055.9,4277.44,4122.56,4352.31,4634.36,4113.85,4627.18,4223.59,4244.62,4234.87,4298.97,4638.97,4389.23,1
655,4330.77,4053.33,4265.64,4118.97,4358.46,4641.03,4115.9,4628.72,4217.95,4242.56,4236.41,4300.51,4639.49,4390.26,1
656,4328.72,4051.79,4265.64,4118.46,4357.44,4641.54,4113.33,4630.26,4225.64,4244.62,4236.41,4303.59,4641.54,4391.28,1
657,4335.9,4058.46,4279.49,4125.64,4350.26,4632.31,4103.08,4634.87,4242.56,4260,4244.1,4307.69,4650.26,4397.95,1
658,4337.44,4055.38,4281.03,4124.1,4346.67,4627.69,4101.54,4641.03,4239.49,4257.95,4242.56,4306.67,4648.72,4395.38,1
659,4332.82,4046.15,4274.36,4115.38,4346.67,4630.26,4108.72,4640,4223.59,4243.08,4230.26,4300.51,4636.92,4388.72,1
660,4331.28,4048.72,4276.41,4116.41,4349.23,4631.79,4112.82,4637.44,4225.13,4241.03,4228.21,4297.44,4633.33,4388.72,1
661,4328.21,4052.31,4278.97,4122.56,4349.23,4631.79,4115.9,4638.46,4232.82,4243.59,4232.82,4300.51,4635.9,4385.13,1
662,4324.1,4045.13,4274.36,4122.05,4347.69,4632.31,4114.36,4630.77,4222.56,4238.97,4227.18,4297.95,4631.28,4376.92,1
663,4322.05,4041.54,4271.79,4115.9,4344.1,4629.23,4108.21,4616.92,4203.59,4229.23,4216.92,4289.74,4620.51,4374.36,1
664,4321.03,4043.59,4273.85,4114.36,4338.46,4622.56,4107.69,4612.82,4200.51,4221.54,4216.41,4292.31,4616.41,4381.03,1
665,4324.62,4044.1,4278.97,4121.03,4339.49,4620.51,4108.21,4614.36,4207.18,4222.05,4222.56,4303.08,4624.62,4387.18,1
666,4326.15,4044.1,4282.56,4123.59,4344.1,4618.97,4103.08,4616.92,4208.21,4231.28,4222.56,4304.1,4626.67,4380,1
667,4319.49,4040,4276.92,4116.41,4344.62,4616.92,4100,4625.64,4212.82,4233.33,4218.97,4296.92,4618.46,4368.72,1
668,4316.92,4035.9,4264.1,4109.74,4344.1,4621.03,4105.13,4634.36,4224.1,4230.77,4222.05,4294.36,4617.44,4372.31,1
669,4321.54,4041.03,4263.59,4114.36,4351.79,4629.74,4109.74,4637.44,4229.74,4240.51,4230.26,4299.49,4627.18,4383.59,1
670,4321.03,4050.26,4273.33,4120,4352.82,4632.82,4108.21,4634.87,4221.54,4249.74,4233.33,4302.56,4634.87,4382.05,1
671,4320,4050.77,4271.28,4120.51,4347.69,4626.15,4103.59,4626.15,4208.72,4242.56,4232.31,4299.49,4634.36,4378.46,1
672,4326.15,4048.21,4264.62,4121.03,4351.79,4622.05,4101.54,4618.97,4208.72,4234.36,4233.33,4298.97,4632.82,4383.59,1
673,4329.74,4050.26,4267.69,4122.56,4352.82,4621.54,4104.1,4620.51,4220.51,4240.51,4235.9,4303.08,4636.41,4387.18,1
674,4329.23,4049.74,4270.77,4121.54,4349.74,4621.03,4103.59,4628.72,4231.79,4250.77,4234.87,4303.59,4637.95,4385.13,1
675,4328.21,4046.67,4267.69,4120,4349.74,4621.03,4103.59,4636.41,4234.87,4251.79,4236.41,4300.51,4634.87,4381.03,1
676,4324.1,4046.67,4264.1,4122.56,4349.74,4625.64,4109.74,4632.82,4226.15,4248.21,4236.41,4297.95,4630.26,4375.9,1
677,4314.36,4042.05,4264.62,4118.46,4341.54,4626.15,4112.31,4622.56,4207.18,4237.44,4227.18,4293.33,4624.62,4368.21,1
678,4308.72,4035.38,4261.54,4111.28,4340,4622.56,4108.72,4626.15,4207.69,4227.69,4218.46,4289.74,4620,4365.13,1
679,4309.74,4036.41,4252.82,4111.28,4347.69,4626.67,4108.21,4638.46,4224.62,4232.82,4220,4289.74,4621.54,4367.18,1
680,4308.21,4038.97,4251.79,4114.87,4347.69,4627.69,4107.18,4633.33,4219.49,4235.38,4221.03,4287.18,4618.46,4366.15,1
681,4307.69,4038.97,4262.05,4117.95,4346.67,4620,4104.62,4619.49,4209.74,4229.74,4217.44,4287.18,4613.85,4367.69,1
682,4314.36,4042.05,4265.13,4121.03,4353.33,4618.46,4109.23,4622.56,4220,4233.85,4223.08,4293.85,4620,4373.33,1
683,4320,4046.15,4265.64,4124.1,4359.49,4624.62,4115.38,4631.79,4225.13,4245.13,4229.74,4297.44,4629.74,4378.97,1
684,4317.95,4049.74,4272.82,4126.15,4361.03,4630.26,4113.33,4629.74,4222.56,4246.15,4228.21,4296.41,4633.33,4382.05,1
685,4318.46,4051.79,4271.79,4125.13,4363.08,4632.31,4109.74,4627.69,4229.74,4246.15,4226.67,4295.9,4633.33,4381.03,1
686,4321.03,4050.26,4263.08,4122.56,4362.56,4633.33,4112.31,4630.77,4232.82,4246.15,4227.18,4297.95,4627.69,4375.38,1
687,4318.46,4047.18,4262.05,4121.54,4360,4633.33,4113.85,4633.85,4232.82,4240.51,4222.56,4300,4621.54,4373.85,1
688,4315.9,4043.08,4264.62,4122.56,4356.92,4632.82,4110.77,4642.05,4240.51,4242.05,4221.03,4298.46,4622.05,4373.33,1
689,4315.38,4041.03,4263.59,4123.08,4351.28,4635.38,4108.21,4645.13,4236.92,4242.05,4223.08,4292.31,4621.54,4368.21,1
690,4312.82,4044.1,4264.1,4122.56,4353.85,4635.38,4111.79,4637.44,4229.23,4241.03,4225.64,4288.21,4624.62,4373.85,1
691,4314.36,4048.21,4265.64,4121.54,4361.54,4632.31,4117.44,4633.85,4229.23,4250.26,4235.9,4295.9,4637.44,4383.08,1
692,4322.56,4047.69,4266.15,4120,4360.51,4633.33,4115.38,4630.26,4222.05,4252.31,4241.54,4300.51,4642.56,4378.97,1
693,4324.1,4048.21,4266.67,4126.15,4358.46,4633.85,4108.72,4624.1,4218.46,4242.56,4230.77,4293.33,4631.79,4374.36,1
694,4322.56,4052.82,4267.18,4134.87,4360.51,4631.79,4105.13,4628.21,4232.31,4241.03,4227.18,4290.26,4627.18,4378.97,1
695,4326.15,4051.79,4266.67,4133.33,4357.95,4632.82,4106.67,4638.46,4236.41,4248.21,4232.31,4293.85,4632.82,4381.03,1
696,4327.69,4043.59,4266.67,4123.08,4354.87,4634.36,4110.26,4634.36,4226.15,4242.56,4228.21,4293.33,4632.82,4380,1
697,4331.79,4047.18,4275.38,4125.13,4358.97,4628.21,4107.18,4623.08,4220.51,4235.9,4229.23,4296.92,4632.31,4386.67,1
698,4340.51,4058.97,4282.56,4137.95,4357.95,4625.13,4100.51,4619.49,4216.92,4240,4235.38,4304.1,4636.92,4388.21,1
699,4335.9,4053.85,4273.33,4136.41,4354.87,4629.74,4103.59,4623.59,4214.87,4241.54,4227.69,4295.38,4633.85,4378.46,1
700,4317.44,4039.49,4261.03,4125.64,4357.95,4633.33,4111.79,4627.69,4219.49,4234.87,4217.95,4280.51,4622.05,4369.23,1
701,4311.79,4041.03,4260.51,4128.21,4357.44,4631.28,4110.26,4629.23,4227.69,4234.36,4217.95,4279.49,4618.46,4367.18,1
702,4323.59,4054.36,4265.64,4138.97,4356.92,4626.67,4104.1,4629.23,4233.33,4249.23,4223.08,4287.69,4626.67,4373.85,1
703,4328.72,4058.46,4272.31,4141.03,4360.51,4629.23,4107.69,4631.28,4227.69,4252.31,4227.69,4296.92,4629.74,4380,1
704,4327.69,4053.85,4280.51,4137.95,4361.54,4630.77,4110.77,4629.74,4217.44,4236.41,4228.21,4301.54,4625.13,4381.03,1
705,4331.79,4054.36,4283.59,4138.97,4358.97,4621.03,4104.1,4623.08,4217.44,4231.79,4229.74,4302.56,4629.74,4384.1,1
706,4327.69,4051.28,4276.92,4135.9,4354.36,4617.95,4103.59,4621.54,4218.46,4236.92,4230.77,4299.49,4633.85,4378.97,1
707,4316.92,4039.49,4266.67,4125.13,4350.26,4626.15,4112.82,4626.67,4219.49,4233.33,4221.54,4292.82,4621.54,4363.59,1
708,4309.74,4029.74,4262.05,4117.44,4345.13,4627.69,4110.26,4629.74,4226.67,4225.64,4209.23,4287.69,4607.69,4354.87,1
709,4305.64,4030.77,4262.05,4120,4343.59,4625.64,4105.13,4626.67,4223.08,4226.67,4208.21,4284.62,4607.18,4357.44,1
710,4309.23,4037.44,4267.69,4125.13,4350.26,4628.21,4112.31,4621.03,4214.36,4231.79,4220.51,4291.28,4618.46,4370.26,1
711,4322.05,4038.97,4276.41,4126.15,4354.36,4623.08,4113.33,4621.03,4221.03,4238.46,4229.74,4305.13,4631.79,4382.05,1
712,4324.1,4037.95,4276.41,4125.64,4350.26,4613.85,4106.15,4627.18,4224.1,4242.05,4229.74,4304.62,4632.82,4376.92,1
713,4314.36,4040,4266.15,4125.13,4353.33,4616.92,4107.18,4627.69,4213.33,4237.44,4226.67,4292.82,4625.64,4365.13,1
714,4312.82,4041.54,4254.87,4122.05,4361.03,4624.1,4113.33,4617.95,4206.15,4231.79,4223.08,4285.64,4623.59,4363.08,1
715,4313.85,4037.44,4246.67,4116.92,4357.44,4625.13,4110.26,4615.38,4210.77,4225.64,4219.49,4278.97,4621.54,4359.49,1
716,4307.18,4035.9,4243.59,4115.38,4354.36,4626.67,4106.67,4620,4220,4225.13,4213.85,4269.74,4616.41,4352.31,1
717,4304.1,4037.44,4245.13,4115.38,4355.9,4630.77,4111.79,4623.08,4229.74,4235.38,4212.82,4271.28,4615.9,4354.87,1
718,4309.23,4036.41,4247.69,4113.33,4350.77,4630.26,4116.92,4628.72,4232.31,4245.13,4220.51,4281.03,4620.51,4361.54,1
719,4315.9,4037.44,4255.9,4116.92,4346.15,4624.1,4113.33,4631.28,4227.18,4245.64,4228.72,4288.21,4625.13,4369.23,1
720,4323.08,4041.03,4265.64,4123.08,4346.15,4615.38,4104.1,4626.67,4229.23,4244.62,4232.82,4293.85,4628.21,4378.46,1
721,4327.69,4043.59,4265.64,4123.08,4350.26,4615.38,4103.59,4622.56,4227.69,4246.15,4236.92,4298.46,4632.31,4381.03,1
722,4328.21,4048.72,4263.59,4122.56,4356.41,4622.56,4109.23,4619.49,4215.9,4246.67,4240,4300.51,4636.92,4379.49,1
723,4329.74,4053.33,4264.1,4125.64,4360,4629.74,4113.85,4617.95,4212.82,4248.21,4236.41,4302.05,4636.92,4378.46,1
724,4326.15,4049.23,4265.13,4122.05,4356.92,4631.79,4117.44,4623.59,4220.51,4246.15,4232.82,4298.97,4632.82,4374.87,1
725,4318.46,4040.51,4263.59,4115.9,4355.38,4630.77,4117.95,4625.13,4222.56,4242.05,4231.79,4293.33,4629.74,4370.77,1
726,4319.49,4039.49,4261.54,4118.97,4355.9,4629.74,4115.38,4616.92,4214.36,4240.51,4231.79,4291.28,4628.72,4369.74,1
727,4319.49,4041.54,4261.03,4121.54,4352.31,4628.72,4114.87,4616.92,4210.77,4233.85,4227.69,4288.72,4625.64,4367.18,1
728,4315.38,4041.54,4263.08,4117.95,4353.85,4627.69,4114.87,4626.67,4223.08,4234.36,4226.67,4289.74,4626.15,4366.15,1
729,4315.38,4041.54,4262.56,4117.95,4357.44,4628.72,4115.9,4633.33,4236.41,4249.23,4235.38,4293.33,4631.79,4368.72,1
730,4314.87,4037.95,4261.03,4120.51,4353.85,4632.82,4120,4634.87,4228.21,4249.23,4234.36,4290.77,4627.69,4369.23,1
731,4314.87,4038.46,4261.54,4119.49,4354.36,4635.38,4117.44,4627.69,4215.38,4239.49,4230.26,4286.15,4626.67,4371.28,1
732,4323.59,4050.77,4265.13,4122.05,4365.64,4632.82,4109.23,4620,4224.62,4252.31,4238.46,4292.31,4641.54,4380,1
733,4328.21,4055.9,4267.18,4125.64,4370.77,4631.28,4109.23,4625.13,4235.9,4265.64,4246.67,4300,4649.23,4382.05,1
734,4321.54,4044.1,4264.62,4122.56,4361.54,4633.33,4116.92,4633.33,4230.26,4253.85,4239.49,4294.36,4636.92,4371.28,1
735,4317.95,4040.51,4264.1,4120,4356.92,4632.31,4118.46,4631.28,4222.05,4241.54,4229.23,4286.67,4625.64,4368.72,1
736,4320,4042.05,4267.18,4125.13,4358.97,4627.69,4114.36,4625.64,4217.44,4241.03,4227.69,4291.28,4626.67,4373.33,1
737,4315.38,4033.33,4266.67,4121.54,4352.82,4625.13,4114.36,4623.59,4216.41,4243.08,4226.67,4293.33,4624.62,4365.64,1
738,4308.72,4027.18,4262.05,4110.77,4345.13,4625.64,4117.95,4623.08,4214.87,4240,4224.1,4285.64,4620,4358.46,1
739,4310.26,4032.31,4264.1,4115.38,4349.74,4628.21,4119.49,4620.51,4209.23,4232.31,4223.08,4284.62,4619.49,4363.08,1
740,4313.85,4035.38,4266.15,4120,4357.44,4632.31,4121.03,4620,4207.18,4229.23,4223.59,4288.72,4620.51,4364.1,1
741,4312.31,4031.28,4260.51,4111.28,4356.92,4632.31,4120,4624.62,4215.9,4232.31,4222.56,4286.15,4620.51,4360.51,1
742,4313.85,4033.85,4259.49,4111.79,4357.44,4626.67,4116.92,4628.72,4226.15,4238.46,4224.1,4287.69,4624.1,4364.62,1
743,4320.51,4045.13,4264.1,4125.13,4363.59,4628.21,4116.41,4628.21,4228.21,4248.21,4233.85,4295.9,4633.33,4374.36,1
744,4322.56,4049.23,4264.62,4127.69,4365.13,4634.87,4121.03,4625.64,4221.54,4250.77,4236.92,4298.97,4638.46,4376.92,1
745,4320,4042.56,4262.56,4121.54,4359.49,4634.36,4125.13,4622.56,4217.44,4246.15,4230.26,4296.92,4635.38,4371.79,1
746,4317.95,4038.97,4264.1,4121.54,4359.49,4632.31,4121.03,4621.03,4223.08,4248.21,4226.67,4296.41,4632.82,4370.77,1
747,4321.54,4043.59,4270.26,4124.1,4365.13,4635.9,4120.51,4626.67,4231.79,4255.38,4233.85,4297.95,4635.38,4374.36,1
748,4326.15,4044.62,4272.31,4124.1,4366.15,4638.46,4128.21,4634.36,4235.38,4255.38,4240.51,4302.56,4639.49,4377.44,1
749,4326.15,4045.64,4270.77,4123.08,4366.15,4641.54,4131.79,4636.41,4234.36,4256.41,4242.05,4304.62,4642.56,4378.46,1
750,4321.54,4049.23,4269.23,4123.59,4368.72,4644.62,4130.77,4632.31,4228.21,4255.38,4238.97,4302.56,4641.03,4375.9,1
751,4315.38,4042.56,4266.15,4121.54,4365.13,4640.51,4127.69,4625.13,4219.49,4241.03,4231.28,4298.97,4630.26,4368.72,1
752,4314.36,4035.38,4264.1,4118.97,4354.87,4633.33,4121.54,4621.54,4214.36,4233.33,4228.21,4293.85,4626.67,4368.21,1
753,4317.44,4037.95,4267.69,4122.05,4351.79,4631.28,4119.49,4623.08,4216.92,4240.51,4228.21,4293.33,4632.82,4373.85,1
754,4315.9,4034.87,4267.18,4121.54,4352.82,4629.74,4120.51,4620,4212.31,4237.95,4224.1,4290.77,4626.15,4366.67,1
755,4311.28,4027.69,4260,4118.46,4351.28,4625.13,4112.31,4616.92,4212.31,4230.26,4219.49,4287.18,4615.38,4363.08,1
756,4316.41,4035.38,4267.69,4122.05,4353.33,4625.13,4105.64,4621.54,4228.21,4243.59,4225.13,4294.36,4623.08,4374.87,1
757,4324.62,4044.1,4280.51,4125.64,4354.87,4629.23,4112.82,4628.21,4230.77,4252.31,4229.23,4298.97,4629.23,4376.92,1
758,4322.56,4037.95,4277.95,4120.51,4349.23,4630.77,4118.97,4631.28,4220,4236.92,4224.1,4291.28,4619.49,4365.64,1
759,4312.82,4027.18,4266.67,4113.33,4342.05,4629.23,4114.87,4628.21,4219.49,4229.74,4217.44,4288.21,4611.28,4360.51,1
760,4309.23,4026.15,4263.59,4109.74,4343.59,4627.69,4113.85,4622.05,4221.54,4236.92,4216.92,4291.28,4612.82,4366.67,1
761,4316.92,4032.82,4268.72,4109.23,4348.72,4629.74,4118.46,4618.97,4216.41,4239.49,4223.59,4290.26,4621.54,4369.74,1
762,4314.36,4030.26,4267.69,4110.26,4345.13,4631.79,4121.54,4619.49,4215.38,4236.92,4220,4287.18,4618.97,4360,1
763,4301.54,4021.54,4261.54,4107.18,4341.03,4629.74,4120.51,4623.59,4225.13,4240,4211.28,4283.59,4609.74,4354.36,1
764,4304.62,4026.67,4262.56,4108.21,4345.64,4629.74,4118.97,4625.13,4234.36,4247.18,4219.49,4286.15,4616.92,4364.62,1
765,4317.44,4041.03,4269.23,4117.95,4352.82,4630.77,4121.54,4623.08,4229.74,4249.74,4233.33,4297.95,4629.74,4375.38,1
766,4318.46,4045.64,4268.21,4124.62,4351.79,4626.15,4120.51,4618.46,4218.97,4242.05,4227.18,4296.92,4627.69,4371.79,1
767,4315.9,4042.56,4264.1,4123.08,4345.13,4618.46,4111.79,4620,4221.54,4237.95,4218.46,4286.67,4621.03,4366.15,1
768,4320,4042.56,4266.67,4122.56,4346.67,4616.41,4109.23,4619.49,4223.08,4246.67,4225.64,4289.74,4627.18,4369.74,1
769,4318.46,4042.05,4268.21,4123.08,4350.77,4619.49,4112.82,4607.69,4205.64,4246.15,4231.79,4297.95,4635.9,4372.31,1
770,4317.44,4040.51,4272.31,4122.56,4348.72,4623.59,4113.85,4604.1,4193.33,4231.28,4226.15,4298.46,4632.82,4371.79,1
771,4324.1,4043.59,4277.95,4124.1,4347.69,4627.69,4115.38,4611.79,4200.51,4226.67,4216.92,4294.36,4623.59,4371.79,1
772,4324.1,4044.1,4271.28,4122.56,4349.23,4627.18,4117.95,4613.85,4213.33,4232.82,4213.33,4291.28,4620.51,4369.74,1
773,4317.44,4040,4262.05,4120,4347.69,4625.64,4118.46,4610.26,4212.31,4230.26,4214.36,4292.31,4621.54,4367.18,1
774,4321.54,4043.08,4270.77,4121.54,4347.69,4622.05,4112.82,4612.31,4211.79,4229.74,4221.54,4298.46,4626.67,4376.92,1
775,4332.31,4048.21,4283.59,4123.59,4350.77,4614.87,4105.13,4615.38,4216.92,4240.51,4229.23,4302.05,4635.9,4386.67,1
776,4326.67,4043.59,4276.41,4123.59,4350.26,4612.82,4101.03,4610.77,4211.79,4243.08,4226.67,4295.9,4639.49,4380,1
777,4315.38,4038.46,4266.67,4124.1,4350.26,4615.9,4103.08,4606.15,4206.67,4240,4222.05,4292.31,4632.31,4374.87,1
778,4317.95,4040,4270.26,4123.59,4349.23,4617.95,4105.64,4610.26,4214.36,4243.59,4223.59,4294.87,4627.18,4377.95,1
779,4320,4038.46,4271.79,4122.05,4345.13,4621.03,4104.1,4613.85,4208.72,4240.51,4225.13,4292.82,4627.69,4373.33,1
780,4312.82,4033.33,4264.1,4121.03,4343.59,4623.08,4104.1,4605.64,4192.82,4228.21,4216.92,4286.15,4624.62,4363.59,1
781,4309.74,4031.28,4262.56,4120,4347.18,4621.54,4104.62,4601.03,4202.05,4228.21,4209.23,4286.15,4619.49,4362.05,1
782,4316.92,4035.38,4272.31,4122.56,4347.18,4617.95,4105.64,4609.74,4216.92,4236.41,4212.31,4293.33,4622.56,4370.26,1
783,4321.54,4039.49,4278.97,4126.15,4343.59,4614.87,4105.64,4611.79,4210.26,4232.31,4220.51,4295.38,4628.21,4375.38,1
784,4320.51,4038.97,4277.95,4125.13,4343.59,4612.31,4102.56,4609.23,4206.67,4228.72,4223.08,4296.41,4627.69,4374.87,1
785,4320.51,4036.92,4276.92,4122.05,4346.67,4613.85,4101.03,4615.38,4213.33,4234.87,4222.05,4299.49,4629.23,4374.87,1
786,4320.51,4035.9,4275.9,4122.05,4347.18,4615.38,4104.1,4615.38,4210.77,4237.44,4225.64,4300.51,4633.33,4377.95,1
787,4322.56,4037.44,4271.28,4123.59,4348.72,4617.44,4105.64,4607.18,4207.69,4233.85,4226.15,4297.95,4630.26,4377.44,1
788,4321.54,4040.51,4266.15,4123.59,4352.31,4624.1,4106.15,4608.21,4209.23,4230.26,4219.49,4292.82,4623.08,4370.77,1
789,4318.46,4039.49,4266.15,4124.62,4351.28,4624.62,4104.62,4611.79,4204.1,4224.62,4211.28,4288.21,4621.54,4368.21,1
790,4317.95,4036.92,4266.67,4124.62,4347.69,4617.44,4103.59,4609.74,4207.18,4222.56,4209.74,4287.18,4622.05,4367.69,1
791,4316.41,4032.31,4265.64,4121.03,4344.1,4620,4107.18,4614.87,4216.41,4227.69,4212.31,4287.69,4618.97,4364.62,1
792,4315.38,4030.26,4265.13,4120.51,4342.05,4625.64,4109.74,4617.95,4214.36,4232.82,4212.31,4290.26,4615.9,4366.67,1
793,4315.9,4029.74,4264.62,4121.03,4341.03,4619.49,4106.67,4610.26,4205.64,4231.28,4211.28,4292.82,4616.41,4369.23,1
794,4313.85,4026.67,4263.59,4115.9,4343.59,4615.9,4105.13,4613.85,4214.87,4228.21,4211.28,4290.26,4617.44,4365.64,1
795,4310.77,4026.67,4263.59,4115.38,4348.21,4625.13,4110.26,4627.18,4226.67,4236.41,4216.41,4291.28,4622.05,4365.64,1
796,4314.36,4031.79,4264.62,4117.95,4347.69,4627.69,4108.72,4621.03,4218.97,4242.05,4222.56,4296.41,4629.23,4373.85,1
797,4317.95,4033.33,4264.62,4114.36,4345.13,4618.97,4100.51,4604.1,4204.1,4234.87,4221.03,4293.85,4627.18,4372.82,1
798,4312.82,4025.64,4260.51,4109.74,4340.51,4614.36,4102.56,4604.1,4200,4228.72,4212.31,4287.69,4617.95,4364.62,1
799,4310.77,4021.03,4260.51,4109.23,4336.41,4616.92,4109.23,4611.79,4203.59,4227.69,4206.67,4289.74,4617.44,4365.13,1
800,4311.28,4019.49,4264.62,4105.64,4335.9,4618.46,4104.62,4613.33,4209.23,4226.15,4208.72,4293.33,4617.44,4368.72,1
801,4310.26,4020,4264.62,4105.64,4338.46,4615.9,4101.03,4612.31,4212.82,4226.67,4211.28,4289.23,4612.31,4367.69,1
802,4310.26,4023.59,4261.54,4112.31,4338.46,4617.95,4104.62,4607.69,4206.67,4227.69,4207.69,4284.62,4611.79,4364.1,1
803,4310.26,4023.08,4262.56,4114.87,4338.97,4623.08,4105.13,4605.13,4203.08,4227.69,4207.18,4285.13,4617.44,4364.62,1
804,4312.82,4024.62,4265.13,4113.85,4341.03,4621.54,4103.59,4609.74,4205.64,4229.74,4212.82,4288.72,4621.54,4369.74,1
805,4318.46,4031.79,4265.13,4116.41,4344.1,4615.9,4102.05,4612.31,4206.67,4231.28,4212.82,4290.77,4622.05,4376.92,1
806,4322.05,4034.87,4265.13,4122.05,4348.72,4618.46,4101.03,4610.26,4208.21,4232.82,4209.23,4289.23,4622.56,4377.44,1
807,4319.49,4029.23,4263.59,4122.56,4350.77,4627.18,4105.64,4609.74,4206.15,4233.85,4209.23,4287.18,4622.05,4370.77,1
808,4318.46,4030.77,4263.59,4120.51,4348.72,4629.23,4110.26,4615.38,4211.79,4235.9,4208.21,4285.64,4623.08,4369.23,1
809,4320,4033.85,4265.13,4120,4347.18,4625.13,4110.77,4624.62,4229.23,4240.51,4213.33,4287.69,4626.15,4375.38,1
810,4317.44,4028.72,4266.15,4119.49,4346.15,4623.59,4111.79,4629.74,4230.26,4244.1,4218.46,4293.33,4626.15,4374.87,1
811,4312.82,4027.18,4265.13,4117.95,4344.62,4624.62,4113.85,4628.21,4216.41,4241.54,4213.33,4291.28,4623.08,4368.21,1
812,4312.31,4029.23,4263.59,4120,4344.1,4625.13,4115.38,4626.67,4218.46,4238.46,4213.33,4287.69,4621.54,4370.77,1
813,4315.38,4028.21,4269.74,4123.08,4346.15,4626.15,4116.92,4626.15,4228.72,4243.08,4221.03,4294.36,4625.64,4376.92,1
814,4315.9,4026.15,4274.87,4122.05,4345.64,4625.64,4116.92,4627.18,4227.18,4247.18,4221.03,4300.51,4628.72,4374.36,1
815,4308.72,4022.05,4268.21,4118.46,4341.03,4620.51,4113.85,4629.74,4227.18,4244.62,4215.38,4295.9,4627.18,4369.74,1
816,4301.54,4018.97,4262.05,4118.46,4341.03,4621.54,4109.74,4628.72,4227.18,4241.03,4213.33,4291.28,4621.54,4369.74,1
817,4306.15,4024.62,4265.13,4120.51,4346.15,4628.21,4110.26,4627.18,4225.64,4245.64,4218.46,4291.28,4621.54,4371.28,1
818,4310.77,4027.18,4267.18,4122.05,4350.26,4628.72,4116.41,4629.74,4230.26,4252.31,4220.51,4291.28,4629.23,4369.74,1
819,4305.64,4021.54,4264.62,4117.95,4347.18,4624.62,4116.41,4629.74,4227.69,4248.72,4214.36,4292.82,4627.69,4365.64,1
820,4307.18,4021.03,4264.62,4112.82,4343.59,4623.59,4106.67,4623.59,4220,4238.97,4212.82,4295.9,4624.62,4368.21,1
821,4313.33,4025.13,4269.23,4114.87,4345.13,4622.56,4105.13,4620.51,4222.05,4237.44,4216.92,4295.9,4626.15,4371.28,1
822,4312.82,4024.1,4273.33,4118.97,4341.54,4616.92,4110.26,4621.54,4223.08,4240.51,4212.82,4293.85,4621.54,4362.56,1
823,4313.33,4022.56,4274.87,4118.97,4336.92,4616.92,4112.31,4623.59,4221.03,4238.97,4205.64,4288.21,4617.44,4361.54,1
824,4319.49,4027.18,4277.95,4120.51,4343.08,4627.18,4116.41,4627.69,4229.74,4241.03,4211.28,4287.69,4625.13,4378.46,1
825,4322.05,4031.79,4282.56,4124.62,4352.82,4632.82,4121.54,4628.72,4234.87,4250.26,4220.51,4296.92,4633.85,4388.72,1
826,4320,4028.72,4279.49,4125.64,4352.82,4628.21,4117.44,4622.56,4225.13,4252.82,4222.05,4301.03,4633.85,4378.97,1
827,4316.92,4026.67,4270.77,4124.1,4350.77,4624.1,4111.28,4611.79,4213.33,4243.08,4214.36,4293.85,4629.74,4369.74,1
828,4314.36,4028.72,4266.15,4125.13,4355.9,4627.69,4109.74,4606.15,4210.77,4236.41,4206.67,4284.62,4623.08,4371.79,1
829,4315.9,4028.21,4264.62,4123.59,4358.46,4628.21,4109.74,4610.77,4215.9,4238.97,4205.13,4280.51,4622.05,4373.85,1
830,4316.41,4023.08,4260.51,4115.9,4349.74,4623.59,4108.21,4617.95,4224.1,4240.51,4208.21,4280.51,4627.18,4370.77,1
831,4311.79,4018.97,4257.44,4113.85,4343.08,4623.08,4108.72,4621.54,4228.72,4240,4209.23,4280,4623.59,4365.64,1
832,4310.26,4018.46,4261.03,4121.03,4346.67,4629.74,4113.85,4624.1,4224.1,4240.51,4204.1,4281.03,4611.79,4363.59,1
833,4320,4026.15,4265.64,4121.54,4349.74,4632.82,4116.92,4623.08,4211.79,4235.38,4198.97,4284.1,4605.13,4369.23,1
834,4334.36,4040,4271.79,4122.56,4349.23,4631.28,4116.92,4617.95,4207.69,4229.74,4205.13,4288.21,4613.85,4380,1
835,4343.08,4052.82,4278.46,4133.85,4349.23,4626.67,4115.9,4613.85,4209.74,4229.23,4209.74,4290.26,4620.51,4385.13,1
836,4344.62,4058.46,4280,4140,4348.21,4619.49,4111.28,4609.23,4205.64,4228.72,4203.08,4290.77,4614.87,4384.1,1
837,4347.69,4063.08,4279.49,4140,4353.85,4618.97,4106.67,4606.15,4202.56,4227.18,4201.54,4288.72,4613.33,4388.72,1
838,4353.85,4070.26,4282.05,4140.51,4360,4624.1,4109.74,4608.72,4206.67,4225.13,4206.67,4287.18,4615.9,4392.82,1
839,4355.9,4073.85,4283.08,4142.56,4354.87,4624.62,4115.38,4611.79,4210.77,4224.1,4203.08,4289.74,4611.28,4394.36,1
840,4363.08,4075.9,4284.62,4148.72,4352.82,4624.1,4113.33,4610.26,4208.72,4227.18,4200.51,4292.31,4612.82,4401.54,1
841,4372.82,4082.05,4289.23,4154.87,4360.51,4629.23,4110.77,4609.23,4204.62,4226.67,4208.21,4292.82,4618.97,4407.69,1
842,4369.23,4083.08,4290.26,4152.31,4359.49,4632.82,4116.41,4614.87,4209.23,4224.62,4209.74,4294.87,4615.38,4402.05,1
843,4360,4073.33,4286.15,4150.77,4352.82,4632.82,4121.03,4624.1,4218.97,4232.31,4204.62,4298.97,4613.33,4397.95,1
844,4360.51,4070.77,4290.26,4154.36,4358.97,4634.36,4120.51,4626.15,4220.51,4237.44,4210.26,4304.1,4620,4402.56,1
845,4358.97,4075.9,4294.87,4153.85,4366.15,4633.85,4117.44,4620,4220,4235.38,4215.38,4306.67,4621.54,4400,1
846,4349.23,4073.33,4286.67,4152.31,4360.51,4630.26,4113.33,4613.33,4219.49,4232.82,4210.26,4301.54,4615.38,4390.77,1
847,4341.03,4063.08,4277.95,4152.82,4353.85,4628.72,4110.26,4612.82,4211.79,4229.74,4206.15,4294.36,4611.79,4383.59,1
848,4334.36,4056.41,4281.03,4147.18,4354.87,4630.26,4113.33,4614.36,4208.21,4231.28,4207.18,4291.28,4608.72,4376.92,1
849,4331.79,4060,4282.05,4145.13,4356.41,4630.26,4116.92,4610.77,4212.82,4234.36,4202.56,4289.74,4604.62,4372.31,1
850,4334.36,4060.51,4278.97,4150.26,4362.05,4630.26,4116.92,4604.62,4210.77,4227.69,4201.54,4294.36,4603.59,4372.82,1
851,4327.69,4044.1,4280.51,4146.15,4362.56,4630.26,4117.95,4608.72,4210.26,4219.49,4206.15,4298.97,4598.46,4368.21,1
852,4315.38,4030.77,4277.44,4134.36,4350.26,4625.64,4118.46,4618.46,4220,4223.08,4200.51,4292.31,4590.77,4352.82,1
853,4318.46,4038.46,4275.9,4140,4346.15,4622.05,4113.85,4617.44,4225.13,4228.21,4190.77,4287.18,4591.79,4348.72,1
854,4326.15,4056.41,4280,4153.33,4353.85,4625.64,4109.74,4611.79,4215.38,4224.62,4191.79,4287.69,4588.72,4361.03,1
855,4328.21,4068.21,4280.51,4153.33,4355.38,4629.74,4110.77,4611.28,4210.26,4226.15,4194.36,4285.64,4580,4374.36,1
856,4342.05,4074.36,4284.1,4152.82,4349.23,4627.18,4112.82,4611.28,4214.87,4233.33,4197.44,4290.77,4587.18,4385.13,1
857,4352.82,4076.41,4292.82,4155.9,4346.15,4623.59,4115.38,4613.85,4216.92,4234.36,4205.64,4300.51,4597.95,4389.23,1
858,4342.05,4071.28,4293.85,4151.28,4346.15,4625.13,4120,4622.05,4218.46,4229.23,4207.69,4302.05,4593.85,4383.59,1
859,4329.74,4059.49,4284.62,4140.51,4344.1,4628.21,4117.44,4623.59,4216.92,4227.69,4197.95,4297.44,4585.64,4367.69,1
860,4321.03,4046.15,4271.79,4135.9,4341.03,4624.62,4107.69,4614.87,4210.77,4219.49,4186.15,4286.15,4574.87,4344.62,1
861,4309.23,4041.03,4262.56,4137.95,4345.13,4618.97,4100,4605.64,4204.62,4211.28,4182.05,4272.31,4565.13,4332.31,1
862,4295.38,4038.97,4260.51,4138.97,4350.77,4617.95,4100.51,4597.44,4200,4211.79,4182.56,4269.23,4563.59,4329.23,1
863,4286.15,4033.85,4262.56,4138.46,4346.15,4620,4103.08,4592.31,4195.38,4210.77,4179.49,4273.33,4562.56,4328.21,1
864,4286.15,4032.82,4264.1,4137.44,4345.64,4620,4104.62,4600,4203.08,4212.31,4183.08,4277.44,4566.15,4333.85,1
865,4291.79,4036.92,4265.13,4138.97,4354.87,4623.59,4110.77,4616.41,4223.59,4226.67,4193.85,4283.08,4576.41,4340.51,1
866,4294.36,4035.38,4266.67,4137.95,4355.9,4630.77,4116.92,4625.64,4229.23,4236.92,4194.87,4286.67,4580,4340.51,1
867,4290.26,4027.69,4265.13,4134.36,4348.72,4631.79,4115.9,4621.54,4216.92,4230.77,4189.23,4283.08,4574.36,4335.9,1
868,4281.03,4028.21,4264.62,4135.38,4347.69,4626.67,4114.36,4618.97,4213.85,4225.64,4190.26,4277.44,4572.82,4326.67,1
869,4266.67,4028.72,4262.56,4134.87,4346.67,4628.21,4114.87,4621.54,4220,4227.18,4186.67,4272.31,4571.28,4315.9,1
870,4257.44,4011.28,4260,4124.62,4342.56,4635.38,4118.46,4623.08,4222.05,4228.72,4179.49,4273.85,4563.59,4316.92,1
871,4261.54,3999.49,4260,4116.92,4344.1,4636.92,4122.05,4624.62,4226.15,4229.74,4181.54,4283.59,4561.54,4323.08,1
872,4272.82,4014.36,4262.56,4124.62,4344.62,4633.33,4118.46,4618.97,4218.46,4223.08,4182.05,4284.1,4562.56,4313.85,1
873,4276.41,4030.26,4261.54,4133.85,4345.64,4629.23,4106.15,4604.62,4197.44,4211.79,4173.33,4273.33,4554.87,4306.15,1
874,4272.82,4033.33,4254.87,4133.33,4346.15,4627.69,4103.59,4595.9,4195.9,4205.13,4166.15,4265.64,4542.56,4312.31,1
875,4276.92,4033.33,4250.26,4134.36,4339.49,4625.13,4111.28,4601.54,4202.56,4200,4162.05,4263.08,4533.85,4315.9,1
876,4276.92,4028.72,4249.23,4132.31,4332.31,4620.51,4107.69,4605.13,4191.28,4188.21,4153.85,4257.95,4525.64,4305.13,1
877,4264.62,4024.1,4248.72,4126.15,4335.38,4621.03,4098.97,4601.03,4188.21,4187.18,4150.26,4255.9,4520.51,4298.97,1
878,4261.54,4025.64,4248.72,4129.23,4341.03,4624.1,4104.1,4603.08,4204.62,4204.1,4160,4263.08,4529.74,4308.72,1
879,4269.74,4025.13,4249.74,4136.41,4341.54,4621.54,4111.28,4608.72,4211.79,4214.36,4172.82,4268.72,4544.62,4316.41,1
880,4267.69,4025.13,4254.87,4136.41,4343.59,4620.51,4110.26,4606.67,4207.69,4213.33,4175.9,4270.26,4549.74,4312.82,1
881,4264.62,4030.26,4262.05,4135.38,4345.13,4627.18,4115.38,4610.26,4216.92,4217.44,4175.38,4273.85,4549.74,4311.28,1
882,4271.79,4028.21,4266.67,4137.44,4345.13,4635.38,4127.18,4624.62,4227.69,4224.62,4181.03,4279.49,4553.33,4308.72,1
883,4270.26,4021.54,4264.62,4133.33,4343.08,4637.44,4128.72,4625.13,4222.56,4221.54,4182.05,4281.03,4553.85,4301.54,1
884,4261.54,4021.03,4261.54,4125.64,4337.44,4634.87,4124.1,4617.44,4217.44,4218.46,4174.87,4281.54,4547.69,4297.95,1
885,4262.05,4018.46,4264.1,4123.59,4334.36,4633.85,4123.59,4623.08,4217.44,4220.51,4174.87,4277.44,4547.69,4304.62,1
886,4263.08,4010.26,4264.1,4122.56,4337.95,4632.31,4122.56,4625.13,4210.77,4218.46,4174.36,4270.26,4547.69,4307.69,1
887,4254.36,4004.62,4256.41,4119.49,4341.54,4624.62,4115.9,4612.31,4197.44,4206.67,4161.54,4266.15,4535.9,4296.41,1
888,4246.67,4002.05,4247.18,4118.46,4343.59,4623.59,4113.33,4607.18,4195.9,4195.38,4152.31,4263.59,4525.64,4283.08,1
889,4249.23,4005.64,4245.13,4121.54,4347.69,4630.77,4112.82,4611.28,4203.59,4200.51,4159.49,4265.13,4533.33,4288.21,1
890,4253.33,4015.9,4252.82,4128.21,4347.69,4630.77,4107.18,4606.67,4205.13,4211.28,4166.67,4267.18,4543.59,4301.03,1
891,4253.85,4018.46,4258.97,4134.36,4342.56,4626.15,4104.62,4602.05,4204.62,4208.21,4163.59,4268.21,4542.05,4301.03,0
892,4256.92,4010.77,4261.03,4135.9,4341.54,4627.18,4109.74,4604.1,4204.1,4199.49,4164.62,4271.28,4540,4293.33,0
893,4259.49,4011.79,4261.03,4134.87,4346.15,4628.72,4114.36,4603.59,4199.49,4203.08,4173.33,4275.38,4543.59,4298.46,0
894,4257.95,4020.51,4255.9,4136.41,4348.21,4629.74,4114.36,4600,4198.46,4216.41,4177.44,4275.38,4548.21,4307.18,0
895,4256.41,4021.54,4254.36,4136.41,4345.13,4635.38,4117.44,4606.15,4211.79,4221.03,4174.87,4274.36,4549.74,4306.67,0
896,4260,4012.82,4255.38,4135.38,4342.05,4636.92,4124.1,4614.36,4215.9,4214.87,4174.36,4272.31,4549.23,4302.56,0
897,4265.13,4010.77,4255.9,4136.41,4345.13,4632.82,4121.54,4611.28,4207.18,4211.79,4175.38,4274.87,4549.23,4307.18,0
898,4263.08,4017.95,4258.46,4136.92,4350.26,4631.79,4119.49,4608.72,4208.72,4215.38,4176.92,4280,4551.79,4310.26,0
899,4255.38,4016.92,4257.95,4136.92,4350.26,4633.85,4121.03,4610.26,4209.23,4218.46,4178.46,4276.41,4556.41,4308.21,0
900,4254.36,4007.18,4249.74,4136.41,4349.74,4632.31,4114.87,4611.79,4207.69,4218.97,4180,4271.28,4557.95,4308.21,0
901,4258.46,4005.13,4246.67,4132.82,4353.85,4631.28,4106.67,4614.36,4214.87,4217.95,4181.03,4272.31,4554.87,4303.59,0
902,4253.33,4007.69,4250.26,4133.33,4355.9,4635.38,4108.72,4609.74,4209.74,4214.87,4176.41,4268.72,4548.72,4298.97,0
903,4250.26,4006.67,4249.23,4137.44,4350.26,4633.85,4109.23,4602.05,4197.44,4210.26,4169.23,4261.54,4544.1,4298.97,0
904,4253.85,4003.59,4247.69,4132.82,4346.67,4630.77,4104.62,4606.15,4200,4205.64,4169.23,4264.62,4543.59,4292.82,0
905,4250.26,4005.64,4248.72,4125.13,4350.77,4634.36,4106.67,4613.85,4206.67,4207.69,4171.28,4272.82,4545.13,4296.92,0
906,4253.33,4012.31,4254.36,4131.28,4353.85,4634.87,4110.26,4608.72,4203.08,4210.26,4173.85,4273.33,4552.31,4315.9,0
907,4267.69,4019.49,4263.08,4140.51,4351.79,4630.77,4108.21,4603.08,4204.62,4210.77,4180.51,4270.77,4560,4317.95,0
908,4267.69,4020.51,4266.15,4138.46,4348.21,4630.26,4105.64,4605.64,4207.69,4214.87,4183.08,4269.74,4557.44,4310.26,0
909,4258.97,4017.44,4261.54,4135.9,4347.18,4629.23,4102.56,4603.08,4205.13,4216.41,4177.44,4271.79,4550.77,4313.33,0
910,4261.03,4012.31,4252.82,4137.44,4346.67,4628.72,4103.08,4596.92,4198.97,4209.23,4171.28,4267.18,4546.15,4308.21,0
911,4260,4007.18,4246.67,4134.36,4345.13,4633.33,4106.67,4597.44,4198.97,4207.18,4168.21,4260,4544.62,4298.97,0
912,4253.33,4008.21,4247.69,4132.82,4346.15,4634.87,4106.67,4605.64,4213.33,4218.46,4173.33,4263.59,4551.28,4308.72,0
913,4255.9,4011.28,4250.26,4137.44,4348.72,4630.26,4105.64,4606.67,4214.87,4220.51,4178.97,4268.21,4554.36,4309.74,0
914,4255.38,4008.72,4247.69,4134.87,4348.72,4628.21,4109.74,4598.97,4198.97,4206.67,4174.36,4265.13,4549.23,4298.97,0
915,4249.23,4004.1,4245.64,4128.21,4348.21,4629.74,4108.21,4598.97,4201.54,4204.62,4175.38,4264.1,4552.82,4307.18,0
916,4252.31,4003.59,4244.62,4130.26,4352.31,4630.77,4105.64,4609.74,4217.95,4220.51,4186.15,4271.79,4565.13,4319.49,0
917,4257.44,4007.69,4245.13,4135.9,4360,4632.82,4110.77,4614.36,4213.85,4226.67,4191.79,4273.85,4566.67,4312.31,0
918,7222.05,3797.95,1040,3733.85,6040.51,362564,6350.26,5361.54,1357.95,6215.38,3273.33,3091.28,276.41,715897,0
919,4253.85,4005.13,4246.15,4134.36,4349.74,4630.77,4106.67,4597.44,4195.38,4208.72,4177.44,4261.03,4556.41,4302.56,0
920,4254.36,4003.08,4246.15,4135.38,4347.69,4627.18,4104.1,4588.72,4188.72,4206.67,4173.33,4260.51,4554.36,4303.59,0
921,4263.08,4009.74,4251.28,4138.97,4350.26,4625.64,4105.64,4587.18,4191.28,4211.79,4177.44,4269.23,4559.49,4311.28,0
922,4272.31,4020.51,4257.95,4140.51,4350.26,4627.69,4106.67,4594.36,4203.59,4215.38,4183.59,4275.38,4569.23,4325.13,0
923,4272.31,4021.54,4260.51,4139.49,4348.72,4629.74,4107.18,4598.46,4202.05,4209.74,4182.56,4274.36,4571.79,4328.21,0
924,4274.36,4020,4260,4143.08,4351.79,4627.69,4108.72,4598.97,4199.49,4209.23,4179.49,4272.31,4565.13,4323.08,0
925,4281.54,4022.05,4262.56,4150.77,4352.31,4628.72,4110.26,4600,4203.59,4218.46,4178.97,4271.79,4561.54,4316.41,0
926,4276.92,4018.46,4266.15,4150.26,4350.77,4630.26,4110.26,4596.92,4198.46,4214.87,4179.49,4270.26,4562.56,4308.72,0
927,4268.21,4012.82,4258.97,4141.54,4355.38,4624.62,4105.13,4595.38,4197.95,4202.05,4180,4269.74,4562.05,4311.28,0
928,4266.15,4012.31,4250.77,4135.9,4354.87,4622.05,4101.54,4598.97,4204.1,4203.08,4179.49,4271.28,4561.54,4314.87,0
929,4264.1,4016.41,4254.87,4141.54,4347.69,4625.13,4101.54,4596.41,4196.41,4211.28,4181.03,4271.28,4564.62,4315.38,0
930,4266.67,4021.03,4261.03,4149.23,4349.74,4625.13,4101.54,4594.36,4198.97,4216.41,4188.21,4274.87,4572.31,4325.64,0
931,4272.31,4025.13,4262.56,4143.59,4355.38,4624.62,4103.59,4603.08,4215.9,4219.49,4191.28,4278.97,4576.41,4329.23,0
932,4273.85,4020,4262.56,4135.38,4352.31,4627.69,4111.28,4610.77,4215.9,4223.59,4190.77,4277.44,4575.9,4321.54,0
933,4271.79,4012.31,4256.41,4140.51,4347.69,4631.28,4114.87,4608.21,4208.21,4223.08,4186.67,4273.85,4575.9,4316.92,0
934,4268.21,4009.23,4246.67,4140,4343.59,4629.23,4110.77,4604.1,4208.21,4214.87,4180.51,4267.69,4567.69,4309.74,0
935,4266.67,4007.18,4244.62,4132.82,4343.08,4624.1,4106.15,4603.59,4206.67,4211.28,4183.59,4266.67,4560,4310.26,0
936,4272.31,4009.23,4247.69,4135.9,4350.77,4622.56,4105.13,4603.08,4202.05,4216.41,4189.23,4271.28,4566.15,4327.69,0
937,4276.41,4009.23,4243.08,4133.33,4350.26,4621.54,4101.54,4596.41,4188.72,4209.74,4182.05,4269.23,4570.77,4325.64,0
938,4266.15,4000.51,4233.85,4120.51,4341.03,4616.41,4096.92,4585.64,4175.38,4192.31,4171.28,4260.51,4554.87,4301.54,0
939,4255.9,3998.97,4230.77,4118.46,4342.56,4615.9,4098.46,4581.54,4183.08,4191.79,4170.77,4256.92,4546.15,4302.56,0
940,4262.56,4004.62,4231.28,4118.46,4347.69,4619.49,4100.51,4588.21,4195.38,4202.05,4171.79,4254.36,4555.9,4313.33,0
941,4270.77,4004.62,4230.77,4114.87,4344.62,4619.49,4096.41,4589.23,4186.67,4204.62,4171.79,4252.31,4556.41,4304.1,0
942,4273.33,4004.1,4229.74,4116.41,4347.18,4622.56,4094.87,4590.26,4183.08,4202.56,4175.9,4257.44,4551.28,4303.59,0
943,4276.41,4007.18,4234.36,4120,4354.36,4625.13,4101.54,4601.03,4198.46,4203.08,4179.49,4262.05,4556.41,4318.97,0
944,4280.51,4010.26,4241.54,4117.44,4346.67,4620.51,4104.1,4603.59,4203.08,4206.15,4181.03,4265.64,4565.64,4328.21,0
945,4278.97,4008.21,4243.08,4109.23,4333.85,4617.44,4101.03,4595.9,4196.92,4214.36,4185.13,4269.23,4568.21,4326.15,0
946,4274.87,3995.38,4238.97,4100.51,4335.9,4622.56,4105.64,4606.67,4212.82,4223.08,4191.79,4269.74,4565.64,4317.95,0
947,4270.26,3987.18,4238.97,4100.51,4342.05,4627.18,4116.92,4623.08,4227.69,4226.15,4190.77,4267.69,4562.56,4308.72,0
948,4258.97,4000.51,4235.9,4107.69,4343.08,4626.15,4114.36,4615.38,4212.82,4221.54,4184.1,4260.51,4562.56,4308.72,0
949,4248.21,4013.85,4222.56,4107.69,4346.67,4627.18,4105.64,4598.46,4199.49,4216.41,4181.54,4252.82,4568.21,4308.72,0
950,4242.05,4003.08,4215.38,4102.56,4350.26,4625.64,4103.08,4593.33,4198.46,4213.85,4177.95,4253.85,4565.64,4297.95,0
951,4243.59,3992.82,4218.97,4102.05,4346.67,4618.46,4099.49,4590.26,4188.72,4210.26,4175.9,4253.33,4557.44,4295.38,0
952,4245.13,3997.95,4217.44,4104.1,4345.64,4616.41,4096.92,4586.67,4180,4204.1,4175.38,4246.15,4555.9,4298.46,0
953,4242.05,3996.41,4215.38,4100.51,4345.13,4621.54,4099.49,4586.67,4184.62,4200.51,4171.79,4246.67,4554.87,4293.85,0
954,4244.62,3991.79,4222.05,4096.92,4340,4618.46,4102.56,4589.74,4195.38,4204.62,4174.36,4255.9,4556.41,4296.92,0
955,4254.36,3998.97,4231.79,4102.05,4343.08,4615.38,4103.59,4597.95,4200.51,4218.46,4186.15,4263.59,4566.67,4307.69,0
956,4261.03,4005.13,4233.33,4107.18,4348.72,4624.62,4106.67,4603.08,4201.54,4222.56,4187.18,4261.03,4572.82,4311.79,0
957,4260,4000,4233.33,4106.67,4347.69,4630.26,4110.26,4603.08,4204.1,4210.77,4181.03,4258.46,4567.18,4313.85,0
958,4259.49,4000,4236.92,4107.69,4345.64,4628.72,4111.79,4608.21,4213.33,4213.85,4187.18,4267.18,4569.74,4316.92,0
959,4258.46,4003.08,4237.95,4109.23,4344.62,4627.69,4111.28,4610.77,4217.44,4232.31,4192.31,4269.23,4575.38,4310.26,0
960,4254.87,3996.41,4234.36,4106.15,4343.08,4623.59,4107.69,4602.05,4201.54,4227.69,4180.51,4257.95,4563.08,4296.92,0
961,4250.77,3989.74,4232.82,4104.1,4344.62,4621.03,4102.05,4594.36,4182.05,4202.05,4165.13,4248.72,4546.15,4291.28,0
962,4246.67,3989.74,4233.33,4105.13,4346.67,4621.03,4098.97,4598.46,4188.72,4196.92,4164.62,4249.74,4545.13,4292.31,0
963,4247.69,3991.28,4225.64,4105.13,4344.62,4620.51,4102.05,4604.1,4202.56,4210.26,4174.87,4250.77,4554.87,4290.26,0
964,4247.18,3992.82,4215.9,4103.59,4345.13,4624.1,4105.13,4601.54,4198.97,4210.77,4174.87,4246.15,4556.92,4289.23,0
965,4244.62,3993.33,4222.05,4106.15,4345.13,4625.64,4103.08,4596.92,4190.77,4201.03,4167.18,4244.1,4548.72,4294.87,0
966,4246.15,3992.31,4232.31,4106.15,4338.97,4620,4098.46,4596.41,4196.92,4201.54,4168.72,4245.64,4545.13,4301.03,0
967,4253.33,3996.41,4231.79,4102.05,4341.54,4617.95,4098.46,4600,4208.72,4211.28,4179.49,4251.28,4556.92,4303.59,0
968,4266.15,4007.18,4231.28,4104.62,4347.69,4622.56,4101.54,4602.56,4210.77,4220,4189.23,4263.08,4572.31,4309.23,0
969,4269.74,4008.21,4233.85,4109.74,4341.03,4622.05,4098.46,4598.46,4198.97,4220.51,4189.23,4267.69,4573.85,4313.33,0
970,4261.03,4001.03,4231.28,4107.18,4335.9,4623.59,4095.38,4598.97,4197.44,4215.38,4183.59,4260.51,4569.74,4313.85,0
971,4260,4001.54,4231.79,4105.64,4341.03,4630.77,4100.51,4608.72,4206.67,4215.38,4186.15,4260.51,4573.33,4315.9,0
972,4264.62,4000,4233.33,4104.1,4343.08,4630.77,4104.62,4609.74,4203.08,4222.05,4193.33,4264.62,4575.9,4314.87,0
973,4256.92,3990.26,4230.26,4094.36,4340,4624.1,4098.46,4597.95,4198.97,4224.62,4192.82,4257.44,4573.33,4312.31,0
974,4252.82,3989.23,4228.72,4091.79,4342.05,4618.97,4092.31,4595.9,4205.13,4218.46,4187.69,4256.41,4573.33,4312.82,0
975,4256.41,3995.38,4228.72,4101.54,4343.08,4619.49,4097.44,4602.05,4201.54,4214.87,4184.62,4258.97,4570.26,4304.1,0
976,4254.87,4001.03,4228.21,4106.67,4341.03,4620,4101.03,4602.56,4194.36,4217.95,4183.08,4255.38,4563.59,4298.97,0
977,4256.92,4000.51,4232.82,4105.64,4342.05,4620,4101.03,4603.08,4198.46,4218.46,4185.13,4261.03,4566.15,4312.31,0
978,4258.97,3990.77,4237.95,4102.56,4345.13,4622.56,4103.59,4602.05,4196.92,4212.31,4185.13,4265.64,4566.15,4318.97,0
979,4258.46,3996.41,4234.87,4103.59,4347.69,4621.03,4102.05,4590.77,4184.1,4206.15,4175.9,4253.85,4557.95,4308.21,0
980,4257.44,4011.28,4222.56,4104.1,4341.03,4617.95,4095.9,4582.05,4177.95,4201.03,4165.13,4239.49,4548.21,4295.38,0
981,4251.79,4010.77,4213.85,4098.46,4334.87,4619.49,4095.9,4586.15,4184.62,4195.9,4164.62,4239.49,4543.59,4296.41,0
982,4258.97,4013.85,4226.67,4105.13,4343.08,4617.44,4101.54,4595.9,4198.97,4206.15,4175.38,4250.77,4554.36,4312.31,0
983,4276.92,4027.18,4244.1,4122.05,4352.82,4615.9,4103.08,4601.03,4204.62,4220,4184.62,4262.05,4569.74,4322.05,0
984,4273.85,4024.62,4238.97,4117.95,4349.74,4619.49,4098.46,4598.97,4200,4213.85,4180.51,4256.41,4564.62,4308.21,0
985,4256.41,4012.31,4226.15,4101.54,4341.54,4618.46,4093.33,4594.87,4191.28,4202.05,4168.21,4242.05,4547.18,4293.33,0
986,4257.44,4008.72,4226.67,4104.1,4343.08,4617.95,4092.82,4589.23,4187.69,4209.74,4167.69,4243.59,4549.23,4304.1,0
987,4263.08,4011.28,4231.28,4109.23,4348.72,4624.62,4095.38,4590.77,4197.44,4223.59,4182.56,4254.87,4562.56,4313.33,0
988,4258.97,4015.9,4230.77,4107.69,4349.23,4627.69,4096.41,4598.46,4198.97,4218.97,4185.13,4258.46,4560.51,4302.56,0
989,4257.95,4012.82,4230.77,4108.21,4343.08,4625.64,4094.87,4595.38,4186.15,4203.08,4169.74,4251.79,4546.15,4294.87,0
990,4257.95,4002.56,4229.74,4105.13,4335.38,4622.05,4095.9,4591.79,4184.62,4195.38,4160,4243.59,4538.46,4293.85,0
991,4253.33,4002.05,4228.72,4101.54,4337.95,4618.97,4101.03,4601.54,4194.36,4201.54,4163.59,4246.67,4540,4293.85,0
992,4254.87,4008.72,4229.74,4104.62,4344.62,4623.59,4104.1,4606.67,4193.85,4207.69,4172.31,4254.36,4548.21,4305.64,0
993,4266.67,4014.87,4232.31,4110.26,4346.67,4630.77,4103.59,4604.1,4196.41,4210.77,4179.49,4260,4558.46,4319.49,0
994,4272.82,4018.46,4234.36,4113.85,4347.18,4630.26,4103.59,4608.21,4207.18,4217.95,4183.08,4263.59,4562.56,4315.38,0
995,4270.77,4021.54,4238.46,4116.92,4349.74,4630.77,4109.74,4612.82,4211.79,4222.56,4186.15,4266.67,4563.59,4313.33,0
996,4274.36,4024.62,4244.1,4121.03,4352.31,4635.38,4115.9,4617.44,4216.41,4227.18,4194.87,4269.23,4569.74,4326.15,0
997,4276.41,4027.18,4247.18,4123.08,4354.36,4633.85,4112.31,4620.51,4220,4234.36,4203.08,4273.85,4576.92,4330.77,0
998,4274.36,4028.72,4248.21,4122.56,4354.36,4631.79,4105.13,4617.95,4216.41,4235.38,4199.49,4276.92,4577.95,4326.15,0
999,4278.46,4027.69,4247.18,4120.51,4350.26,4632.31,4101.03,4611.79,4210.26,4227.18,4191.79,4270.77,4574.87,4326.15,0
1000,4280.51,4027.69,4246.67,4121.54,4347.69,4631.79,4097.44,4600,4196.92,4219.49,4192.82,4265.13,4571.79,4324.1,0
1001,4277.44,4030.26,4247.69,4123.59,4348.72,4630.77,4094.87,4584.1,4178.97,4214.87,4189.23,4267.18,4568.21,4316.41,0
1002,4279.49,4026.15,4248.72,4122.05,4350.26,4628.72,4098.46,4581.54,4173.85,4203.08,4178.97,4268.21,4562.56,4313.85,0
1003,4279.49,4018.46,4249.23,4120,4349.74,4624.1,4099.49,4589.74,4178.97,4193.85,4176.41,4267.69,4558.97,4321.03,0
1004,4271.79,4020,4242.05,4121.03,4348.21,4622.05,4096.92,4592.31,4184.62,4201.54,4179.49,4266.67,4557.44,4322.05,0
1005,4269.23,4021.54,4233.33,4120,4346.15,4627.69,4099.49,4596.92,4191.28,4211.79,4177.44,4262.56,4556.41,4315.38,0
1006,4272.82,4016.41,4240,4118.46,4343.08,4630.77,4103.59,4605.64,4201.03,4215.9,4179.49,4261.03,4561.54,4318.46,0
1007,4277.95,4022.05,4251.28,4121.54,4344.62,4629.23,4106.67,4608.72,4212.31,4226.15,4191.28,4270.26,4574.87,4331.79,0
1008,4285.13,4032.31,4251.79,4124.62,4348.72,4629.74,4109.23,4609.74,4213.85,4234.36,4198.46,4278.46,4585.13,4336.41,0
1009,4288.72,4030.77,4249.74,4124.1,4351.79,4631.79,4108.72,4612.82,4209.74,4231.79,4196.41,4276.92,4583.08,4326.67,0
1010,4281.54,4026.15,4248.21,4120,4353.33,4630.26,4107.18,4611.79,4206.15,4227.69,4194.36,4270.26,4577.95,4317.95,0
1011,4278.97,4029.74,4245.13,4119.49,4355.9,4629.23,4105.13,4601.54,4202.56,4229.23,4196.41,4265.64,4581.54,4326.67,0
1012,4293.33,4037.44,4247.18,4129.23,4357.44,4630.77,4100,4596.41,4203.08,4232.31,4204.62,4271.28,4591.28,4342.05,0
1013,4299.49,4038.46,4251.79,4135.38,4354.36,4629.74,4098.97,4606.15,4210.26,4235.38,4208.72,4279.49,4593.85,4341.54,0
1014,4283.08,4028.72,4248.21,4124.1,4349.23,4629.23,4101.54,4611.79,4209.23,4231.28,4203.08,4274.36,4587.69,4328.72,0
1015,4270.77,4019.49,4239.49,4112.82,4348.72,4632.31,4101.54,4607.18,4202.05,4221.54,4190.26,4264.1,4577.44,4322.05,0
1016,4272.31,4017.44,4233.85,4109.74,4350.26,4633.33,4096.41,4602.56,4200,4213.85,4178.46,4259.49,4564.62,4317.95,0
1017,4272.82,4020.51,4233.85,4112.31,4348.72,4629.74,4091.79,4594.87,4195.38,4206.15,4174.87,4257.95,4559.49,4314.36,0
1018,4270.26,4023.59,4234.36,4117.44,4348.72,4629.74,4092.31,4587.69,4187.69,4204.62,4174.36,4255.9,4564.1,4313.33,0
1019,4266.67,4022.56,4229.74,4117.44,4347.69,4630.26,4093.85,4593.85,4187.18,4208.21,4171.28,4253.33,4562.56,4308.72,0
1020,4264.1,4021.03,4227.18,4115.38,4344.1,4624.62,4089.23,4604.1,4194.36,4211.79,4169.74,4253.85,4556.92,4308.21,0
1021,4275.38,4028.21,4238.46,4122.56,4347.18,4624.62,4087.69,4607.18,4203.59,4220,4176.92,4262.56,4564.1,4317.44,0
1022,4287.18,4036.41,4250.26,4127.69,4353.85,4632.31,4090.77,4609.74,4208.72,4228.21,4187.18,4270.26,4574.87,4327.18,0
1023,4281.54,4032.31,4249.23,4123.08,4351.79,4633.85,4090.77,4611.79,4207.69,4229.74,4191.79,4269.23,4577.44,4333.33,0
1024,4275.38,4025.64,4244.62,4121.54,4347.69,4624.62,4090.26,4609.74,4207.18,4226.67,4192.82,4266.67,4581.03,4336.92,0
1025,4280,4023.59,4245.64,4123.59,4348.21,4620,4090.77,4607.18,4205.64,4224.62,4193.85,4270.26,4586.15,4336.92,0
1026,4286.67,4026.67,4248.21,4123.59,4349.74,4624.1,4090.77,4601.03,4196.92,4221.54,4196.92,4273.85,4586.67,4339.49,0
1027,4288.21,4031.28,4251.28,4125.13,4352.31,4626.15,4091.79,4595.38,4191.28,4222.05,4196.41,4274.87,4588.72,4341.03,0
1028,4285.64,4031.28,4252.82,4125.13,4351.79,4625.64,4092.31,4593.33,4188.21,4222.05,4195.9,4275.9,4588.21,4335.9,0
1029,4283.59,4025.13,4248.72,4122.05,4348.21,4627.69,4095.9,4589.74,4186.15,4215.9,4194.36,4271.28,4581.03,4334.87,0
1030,4283.08,4022.05,4245.64,4120.51,4349.23,4629.74,4095.9,4589.74,4186.67,4215.38,4190.26,4262.56,4577.44,4332.82,0
1031,4281.54,4024.1,4246.67,4121.54,4351.79,4629.74,4093.85,4595.9,4185.64,4216.92,4188.72,4257.95,4576.41,4327.69,0
1032,4281.54,4025.64,4250.26,4120.51,4351.79,4630.26,4096.92,4597.95,4185.13,4211.79,4184.1,4257.44,4570.77,4323.08,0
1033,4285.64,4027.69,4251.28,4127.18,4350.77,4631.28,4098.97,4598.97,4191.28,4206.67,4176.41,4257.44,4568.72,4318.46,0
1034,4282.56,4027.18,4248.72,4132.82,4348.72,4630.26,4097.95,4610.26,4203.59,4212.31,4178.97,4258.46,4570.26,4322.05,0
1035,4281.03,4022.56,4246.15,4126.67,4348.21,4624.1,4097.44,4613.33,4206.15,4218.97,4187.69,4261.54,4572.31,4333.85,0
1036,4287.18,4026.67,4246.15,4127.69,4354.36,4619.49,4093.33,4597.95,4198.46,4220.51,4190.26,4267.18,4581.54,4340.51,0
1037,4288.72,4035.38,4248.21,4136.41,4360,4623.59,4089.74,4591.79,4192.82,4222.05,4192.82,4273.85,4587.69,4341.54,0
1038,4288.72,4034.87,4249.23,4134.36,4358.46,4627.69,4092.31,4595.9,4192.31,4219.49,4190.26,4273.33,4581.54,4341.03,0
1039,4290.77,4029.23,4247.18,4126.15,4356.92,4622.56,4092.82,4589.23,4185.64,4210.77,4182.05,4266.67,4575.38,4336.41,0
1040,4289.23,4028.21,4247.18,4126.67,4352.82,4617.95,4086.15,4575.38,4174.36,4207.69,4184.1,4264.62,4578.97,4334.87,0
1041,4290.77,4029.23,4248.21,4132.31,4346.67,4618.97,4085.64,4573.85,4176.92,4211.28,4192.82,4269.23,4585.64,4341.03,0
1042,4300.51,4028.72,4248.21,4132.82,4348.72,4624.62,4095.38,4585.13,4190.26,4214.36,4195.9,4278.97,4587.18,4347.18,0
1043,4302.56,4026.67,4250.77,4126.67,4355.9,4630.77,4102.56,4596.41,4197.44,4219.49,4193.85,4283.59,4585.13,4348.21,0
1044,4293.85,4024.62,4250.26,4120,4353.33,4629.23,4098.97,4597.95,4189.74,4224.1,4193.85,4276.41,4582.56,4345.64,0
1045,4289.74,4023.08,4237.95,4122.05,4345.64,4625.64,4092.31,4597.95,4193.85,4222.56,4193.85,4270.26,4580,4341.03,0
1046,4284.1,4017.44,4230.26,4119.49,4342.05,4627.69,4093.85,4607.69,4211.28,4216.92,4186.15,4266.67,4576.92,4329.23,0
1047,4280,4013.85,4232.31,4108.72,4343.59,4625.64,4093.33,4607.18,4202.56,4212.82,4178.97,4262.56,4575.38,4322.56,0
